O-16(n,g) ENDF/B-VII.1
Energy(eV) XS(b)
1.00000E-05 0.00955683
1.09310E-05 0.00914079
1.19340E-05 0.00874824
1.28700E-05 0.00842412
1.38670E-05 0.00811564
1.48080E-05 0.00785354
1.58010E-05 0.00760277
1.67440E-05 0.00738557
1.77340E-05 0.00717646
1.95890E-05 0.00682822
2.00000E-05 0.00675770
2.16010E-05 0.00650245
2.34690E-05 0.00623830
2.54690E-05 0.00598836
2.73450E-05 0.00577930
2.93360E-05 0.00557973
3.12200E-05 0.00540876
3.32030E-05 0.00524476
3.50120E-05 0.00510747
3.69020E-05 0.00497495
3.88760E-05 0.00484700
4.09370E-05 0.00472341
4.46650E-05 0.00452200
4.86720E-05 0.00433186
5.00000E-05 0.00427394
5.24200E-05 0.00417412
5.64060E-05 0.00402394
6.01700E-05 0.00389604
6.41410E-05 0.00377351
6.79160E-05 0.00366714
7.18750E-05 0.00356472
7.92950E-05 0.00339384
8.73430E-05 0.00323370
9.48150E-05 0.00310367
0.000100000 0.00302214
0.000102810 0.00298055
0.000110320 0.00287731
0.000118280 0.00277881
0.000125820 0.00269426
0.000133750 0.00261317
0.000148550 0.00247958
0.000164690 0.00235494
0.000179600 0.00225507
0.000195620 0.00216076
0.000200000 0.00213697
0.000210620 0.00208240
0.000226560 0.00200781
0.000241620 0.00194423
0.000257500 0.00188333
0.000271940 0.00183264
0.000287050 0.00178376
0.000319380 0.00169106
0.000349170 0.00161732
0.000381250 0.00154778
0.000411220 0.00149031
0.000443130 0.00143565
0.000473220 0.00138926
0.000500000 0.00135154
0.000505000 0.00134483
0.000564050 0.00127249
0.000595670 0.00123826
0.000628750 0.00120524
0.000688310 0.00115192
0.000752500 0.00110169
0.000812410 0.00106029
0.000876250 0.00102094
0.000936420 0.000987594
0.00100000 0.000955683
0.00109150 0.000914749
0.00118980 0.000876147
0.00128180 0.000844119
0.00137970 0.000813620
0.00147210 0.000787672
0.00156950 0.000762840
0.00175940 0.000720496
0.00194150 0.000685875
0.00200000 0.000675770
0.00213910 0.000653429
0.00232250 0.000627099
0.00251880 0.000602167
0.00270300 0.000581287
0.00308340 0.000544251
0.00327810 0.000527841
0.00364130 0.000500825
0.00403750 0.000475617
0.00440360 0.000455418
0.00479690 0.000436349
0.00500000 0.000427394
0.00555630 0.000405435
0.00631560 0.000380283
0.00780360 0.000342111
0.00932740 0.000312920
0.0100000 0.000302214
0.0116310 0.000280224
0.0131500 0.000263543
0.0161880 0.000237529
0.0192250 0.000217962
0.0200000 0.000213697
0.0237410 0.000196139
0.0253000 0.000190000
0.0275600 0.000182035
0.0346700 0.000162281
0.0393550 0.000152305
0.0485370 0.000137130
0.0500000 0.000135107
0.0579380 0.000125501
0.0721510 0.000112450
0.0860755 0.000102944
0.100000 9.55008E-05
0.100260 9.53773E-05
0.119000 8.75722E-05
0.146870 7.88557E-05
0.165630 7.42714E-05
0.200000 6.76114E-05
0.212710 6.55674E-05
0.250190 6.04743E-05
0.305930 5.47076E-05
0.371090 4.96897E-05
0.436250 4.58418E-05
0.500000 4.28300E-05
0.511410 4.23512E-05
0.625000 3.83233E-05
0.746990 3.50656E-05
0.928310 3.14672E-05
1.00000 3.03222E-05
1.05050 2.95987E-05
1.35690 2.61091E-05
1.60090 2.40763E-05
1.96380 2.17819E-05
2.00000 2.15878E-05
2.20300 2.05887E-05
2.81200 1.82672E-05
3.79030 1.57804E-05
4.52880 1.44619E-05
5.00000 1.37770E-05
5.97610 1.26653E-05
6.95440 1.17910E-05
8.43250 1.07663E-05
10.0000 9.93417E-06
10.3840 9.76908E-06
12.3360 9.04861E-06
14.2880 8.47634E-06
18.1040 7.62934E-06
20.0000 7.29876E-06
20.1440 7.27717E-06
21.7920 7.04467E-06
27.9510 6.35604E-06
31.6228 6.03996E-06
31.8550 6.02431E-06
39.6630 5.57371E-06
42.5830 5.43506E-06
47.4700 5.22989E-06
50.0000 5.13458E-06
63.0850 4.77205E-06
63.3750 4.76516E-06
70.7107 4.60380E-06
78.7010 4.48857E-06
84.1670 4.41778E-06
94.3160 4.30058E-06
100.000 4.24155E-06
104.960 4.20262E-06
109.930 4.16582E-06
125.550 4.06192E-06
125.750 4.06069E-06
141.421 3.97135E-06
146.540 3.96004E-06
156.780 3.93867E-06
167.330 3.91818E-06
188.010 3.88203E-06
188.120 3.88185E-06
200.000 3.86306E-06
208.920 3.85848E-06
219.240 3.85346E-06
229.710 3.84861E-06
250.470 3.83975E-06
250.500 3.83974E-06
271.290 3.83172E-06
292.080 3.82439E-06
312.880 3.81768E-06
312.930 3.81767E-06
316.228 3.81665E-06
333.670 3.83714E-06
354.460 3.86037E-06
375.250 3.88244E-06
375.390 3.88259E-06
396.040 3.90348E-06
397.636 3.90505E-06
416.830 3.94087E-06
437.620 3.97819E-06
458.420 4.01415E-06
479.210 4.04882E-06
500.000 4.08231E-06
500.310 4.08262E-06
625.230 4.19687E-06
707.107 4.26131E-06
750.160 4.32326E-06
875.080 4.48897E-06
1000.00 4.63765E-06
1250.00 4.94053E-06
1414.21 5.11648E-06
1500.00 5.23897E-06
2000.00 5.88077E-06
2429.20 6.30416E-06
2500.00 6.36873E-06
3000.00 6.79418E-06
3162.28 6.92232E-06
3858.40 7.63139E-06
4000.00 7.76711E-06
5000.00 8.66279E-06
5287.60 8.86808E-06
6250.00 9.51008E-06
6716.70 9.80070E-06
7071.07 1.00134E-05
7500.00 1.03191E-05
8145.90 1.07637E-05
8750.00 1.11642E-05
9575.10 1.16899E-05
10000.0 1.19518E-05
11004.0 1.24629E-05
12433.0 1.31472E-05
12500.0 1.31782E-05
13863.0 1.37893E-05
14142.1 1.39102E-05
15000.0 1.43480E-05
15292.0 1.44943E-05
16721.0 1.51921E-05
18150.0 1.58624E-05
19579.0 1.65085E-05
20000.0 1.66945E-05
21009.0 1.71016E-05
22438.0 1.76615E-05
23867.0 1.82039E-05
25000.0 1.86225E-05
25296.0 1.87302E-05
26725.0 1.92419E-05
28155.0 1.97404E-05
29584.0 2.02261E-05
30000.0 2.03653E-05
31013.0 2.07013E-05
32442.0 2.11660E-05
33871.0 2.16208E-05
35300.0 2.20663E-05
36730.0 2.25033E-05
38159.0 2.29318E-05
39588.0 2.33524E-05
40000.0 2.34723E-05
41017.0 2.37657E-05
42446.0 2.41719E-05
43876.0 2.45717E-05
45305.0 2.49652E-05
46734.0 2.53526E-05
48163.0 2.57341E-05
49592.0 2.61111E-05
50000.0 2.62175E-05
51021.0 2.64809E-05
52451.0 2.68464E-05
53880.0 2.72060E-05
55309.0 2.75619E-05
56738.0 2.79135E-05
58167.0 2.82608E-05
59597.0 2.86042E-05
61026.0 2.89435E-05
62455.0 2.92790E-05
62500.0 2.92895E-05
63884.0 2.96119E-05
65313.0 2.99402E-05
66742.0 3.02661E-05
68171.9 3.05888E-05
69600.9 3.09082E-05
71029.9 3.12244E-05
72458.9 3.15376E-05
73888.0 3.18490E-05
74999.9 3.20892E-05
75000.0 3.20892E-05
75317.9 3.21570E-05
76746.9 3.24597E-05
78175.9 3.27598E-05
79604.9 3.30573E-05
81033.9 3.33532E-05
82464.0 3.36469E-05
83893.0 3.39380E-05
85322.0 3.42267E-05
86751.0 3.45132E-05
87500.0 3.46630E-05
88179.9 3.47984E-05
89608.9 3.50814E-05
91039.0 3.53626E-05
92468.0 3.56425E-05
93897.0 3.59203E-05
95326.0 3.61962E-05
96755.0 3.64702E-05
98184.9 3.67434E-05
99613.9 3.70147E-05
100000 3.70877E-05
101040 3.72800E-05
102470 3.75440E-05
103900 3.78062E-05
105330 3.80667E-05
106760 3.83256E-05
108190 3.85839E-05
109620 3.88416E-05
111050 3.90967E-05
112480 3.93513E-05
113910 3.96054E-05
115330 3.98555E-05
116760 4.01077E-05
118190 4.03574E-05
119620 4.06069E-05
121050 4.08559E-05
122480 4.11026E-05
123910 4.13500E-05
125000 4.15370E-05
125340 4.15951E-05
126770 4.18409E-05
128200 4.20845E-05
129630 4.23279E-05
131060 4.25711E-05
132480 4.28116E-05
133910 4.30534E-05
135340 4.32941E-05
136770 4.35337E-05
138200 4.37741E-05
139630 4.40125E-05
141060 4.42518E-05
142490 4.44900E-05
143920 4.47272E-05
145350 4.49643E-05
146780 4.52015E-05
148210 4.54376E-05
149640 4.56738E-05
150000 4.57334E-05
151060 4.59038E-05
152490 4.61324E-05
153920 4.63611E-05
155350 4.65899E-05
156780 4.68178E-05
158210 4.70458E-05
159640 4.72739E-05
161070 4.75021E-05
162500 4.77295E-05
163930 4.79571E-05
165360 4.81848E-05
166790 4.84126E-05
168210 4.86395E-05
169640 4.88678E-05
171070 4.90952E-05
172500 4.93229E-05
173930 4.95518E-05
175000 4.97226E-05
175360 4.97800E-05
176790 5.00084E-05
178220 5.02371E-05
179650 5.04670E-05
181080 5.06962E-05
182510 5.09257E-05
183940 5.11565E-05
185360 5.13864E-05
186790 5.16168E-05
188220 5.18485E-05
189650 5.20806E-05
191080 5.23140E-05
192510 5.25467E-05
193940 5.27808E-05
195370 5.30162E-05
196800 5.32510E-05
198230 5.34871E-05
199660 5.37247E-05
200000 5.37813E-05
201090 5.39551E-05
202520 5.41837E-05
203940 5.44127E-05
205370 5.46431E-05
206800 5.48759E-05
208230 5.51081E-05
209660 5.53428E-05
211090 5.55779E-05
212520 5.58144E-05
213950 5.60524E-05
215380 5.62919E-05
216810 5.65328E-05
218240 5.67741E-05
219670 5.70180E-05
220000 5.70748E-05
221090 5.72624E-05
222520 5.75092E-05
223950 5.77575E-05
225380 5.80083E-05
226810 5.82606E-05
228240 5.85144E-05
229670 5.87707E-05
231100 5.90285E-05
232530 5.92888E-05
233960 5.95507E-05
235390 5.98161E-05
236820 6.00830E-05
238240 6.03515E-05
239670 6.06235E-05
240000 6.06871E-05
241100 6.08991E-05
242530 6.11762E-05
243960 6.14568E-05
245390 6.17400E-05
246820 6.20268E-05
248250 6.23171E-05
249680 6.26100E-05
251110 6.29065E-05
252540 6.32066E-05
253970 6.35102E-05
255390 6.38175E-05
256820 6.41253E-05
258250 6.44427E-05
259680 6.47597E-05
260000 6.48328E-05
261110 6.50863E-05
262540 6.54125E-05
263970 6.57483E-05
265400 6.60837E-05
266830 6.64288E-05
268260 6.67834E-05
269690 6.71377E-05
271120 6.74915E-05
272550 6.78650E-05
273970 6.82373E-05
275400 6.86101E-05
276830 6.89925E-05
278260 6.93845E-05
279690 6.97862E-05
280000 6.98753E-05
281120 7.01975E-05
282550 7.06085E-05
283980 7.10291E-05
285410 7.14594E-05
286840 7.18993E-05
288270 7.23489E-05
289700 7.28081E-05
291120 7.32762E-05
292550 7.37547E-05
293980 7.42430E-05
295410 7.47409E-05
296840 7.52485E-05
298270 7.57757E-05
299700 7.63126E-05
300000 7.64273E-05
301130 7.68495E-05
302560 7.74035E-05
303990 7.79672E-05
305420 7.85506E-05
306850 7.91436E-05
308270 7.97557E-05
309700 8.03782E-05
310000 8.05148E-05
311130 8.10304E-05
312560 8.16923E-05
313990 8.23739E-05
315420 8.30852E-05
316850 8.38063E-05
318280 8.45570E-05
319710 8.53375E-05
320000 8.54975E-05
321140 8.61277E-05
322570 8.69576E-05
324000 8.78073E-05
325420 8.86860E-05
326850 8.95951E-05
328280 9.05339E-05
329710 9.15125E-05
330000 9.17164E-05
331140 9.25208E-05
332570 9.35689E-05
334000 9.46567E-05
335430 9.57842E-05
336860 9.69615E-05
338290 9.81785E-05
339720 9.94453E-05
340000 9.97022E-05
341150 0.000100762
342580 0.000102138
344000 0.000103563
345430 0.000105059
346860 0.000106615
348290 0.000108240
349720 0.000109945
350000 0.000110291
351150 0.000111720
352580 0.000113584
354010 0.000115539
355440 0.000117583
356870 0.000119727
358300 0.000121980
359730 0.000124344
360000 0.000124815
361150 0.000126836
362580 0.000129459
364010 0.000132222
365440 0.000135134
366870 0.000138206
368300 0.000141459
369730 0.000144890
370000 0.000145572
371160 0.000148532
372590 0.000152393
374020 0.000156484
375450 0.000160825
376880 0.000165476
378300 0.000170366
379730 0.000175556
380000 0.000176600
381160 0.000181146
382590 0.000187136
384020 0.000193526
385450 0.000200315
386880 0.000207605
388310 0.000215394
389740 0.000223783
390000 0.000225411
391170 0.000232871
392600 0.000242560
394030 0.000252948
395450 0.000264135
396880 0.000276223
398310 0.000289311
399740 0.000303298
400000 0.000306060
401170 0.000318476
402600 0.000334852
404030 0.000352427
405000 0.000365197
405460 0.000371403
406890 0.000391778
408320 0.000413753
409750 0.000437228
410000 0.000441518
411180 0.000462302
412610 0.000488877
414030 0.000517050
415000 0.000536943
415460 0.000546625
416890 0.000577398
418320 0.000609172
419750 0.000641346
420000 0.000646865
421180 0.000673519
422610 0.000704992
424040 0.000735066
425000 0.000753540
425470 0.000762738
426900 0.000787111
428330 0.000807284
429760 0.000822456
430000 0.000824052
431180 0.000831928
432610 0.000835300
434040 0.000832472
435000 0.000826465
435470 0.000823544
436900 0.000808916
438330 0.000789387
439760 0.000765658
440000 0.000761065
441190 0.000738729
442620 0.000709400
444050 0.000678671
445000 0.000657615
445480 0.000647242
446910 0.000615813
448330 0.000584783
449760 0.000554653
450000 0.000549682
451190 0.000525723
452620 0.000498093
454050 0.000471963
455000 0.000455444
455480 0.000447332
456910 0.000424302
458340 0.000402771
459770 0.000382640
460000 0.000379577
461200 0.000364010
462630 0.000346578
464060 0.000330447
465000 0.000320480
465480 0.000315515
466910 0.000301684
468340 0.000288752
469770 0.000276821
470000 0.000274997
471200 0.000265689
472630 0.000255357
474060 0.000245824
475000 0.000239912
475490 0.000236892
476920 0.000228560
478350 0.000220827
479780 0.000213594
480000 0.000212543
481210 0.000206862
482640 0.000200529
484060 0.000194595
485000 0.000190938
485490 0.000189062
486920 0.000183928
488350 0.000179095
489780 0.000174461
490000 0.000173802
491210 0.000170227
492640 0.000166173
494070 0.000162369
495000 0.000160028
495500 0.000158785
496930 0.000155411
498360 0.000152217
500000 0.000149212
510000 0.000148228
520000 0.000147244
530000 0.000146259
540000 0.000145275
550000 0.000144291
560000 0.000143307
570000 0.000142322
580000 0.000141338
590000 0.000140354
600000 0.000139370
620000 0.000137401
640000 0.000135433
660000 0.000133464
680000 0.000131496
700000 0.000129527
720000 0.000127559
740000 0.000125590
760000 0.000123622
780000 0.000121653
800000 0.000119685
820000 0.000117716
840000 0.000115748
860000 0.000113779
880000 0.000111811
900000 0.000109842
910000 0.000108858
920000 0.000107874
930000 0.000106890
940000 0.000105905
950000 0.000104921
960000 0.000103937
970000 0.000102953
980000 0.000101969
990000 0.000100984
1.00000E+06 0.000100000
1.01000E+06 0.000100000
1.02000E+06 0.000100000
1.03000E+06 0.000100000
1.04000E+06 0.000100000
1.05000E+06 0.000100000
1.06000E+06 0.000100000
1.07000E+06 0.000100000
1.08000E+06 0.000100000
1.09000E+06 0.000100000
1.10000E+06 0.000100000
1.11000E+06 0.000100000
1.12000E+06 0.000100000
1.13000E+06 0.000100000
1.14000E+06 0.000100000
1.15000E+06 0.000100000
1.16000E+06 0.000100000
1.17000E+06 0.000100000
1.18000E+06 0.000100000
1.19000E+06 0.000100000
1.20000E+06 0.000100000
1.21000E+06 0.000100000
1.22000E+06 0.000100000
1.23000E+06 0.000100000
1.24000E+06 0.000100000
1.25000E+06 0.000100000
1.26000E+06 0.000100000
1.27000E+06 0.000100000
1.28000E+06 0.000100000
1.28500E+06 0.000100000
1.29000E+06 0.000100000
1.29500E+06 0.000100000
1.30000E+06 0.000100000
1.30500E+06 0.000100000
1.31000E+06 0.000100000
1.31500E+06 0.000100000
1.32000E+06 0.000100000
1.32500E+06 0.000100000
1.33000E+06 0.000100000
1.34000E+06 0.000100000
1.35000E+06 0.000100000
1.36000E+06 0.000100000
1.37000E+06 0.000100000
1.38000E+06 0.000100000
1.39000E+06 0.000100000
1.40000E+06 0.000100000
1.45000E+06 0.000100000
1.50000E+06 0.000100000
1.55000E+06 0.000100000
1.60000E+06 0.000100000
1.62000E+06 0.000100000
1.63000E+06 0.000100000
1.64000E+06 0.000100000
1.64200E+06 0.000100000
1.64300E+06 0.000100000
1.64400E+06 0.000100000
1.64500E+06 0.000100000
1.64600E+06 0.000100000
1.64700E+06 0.000100000
1.64800E+06 0.000100000
1.64850E+06 0.000100000
1.64900E+06 0.000100000
1.64950E+06 0.000100000
1.65000E+06 0.000100000
1.65050E+06 0.000100000
1.65100E+06 0.000100000
1.65150E+06 0.000100000
1.65200E+06 0.000100000
1.65300E+06 0.000100000
1.65400E+06 0.000100000
1.65500E+06 0.000100000
1.65600E+06 0.000100000
1.65700E+06 0.000100000
1.65800E+06 0.000100000
1.65900E+06 0.000100000
1.66000E+06 0.000100000
1.66500E+06 0.000100000
1.67000E+06 0.000100000
1.67500E+06 0.000100000
1.68000E+06 0.000100000
1.68200E+06 0.000100000
1.68400E+06 0.000100000
1.68500E+06 0.000100000
1.68600E+06 0.000100000
1.68700E+06 0.000100000
1.68800E+06 0.000100000
1.68900E+06 0.000100000
1.69000E+06 0.000100000
1.69100E+06 0.000100000
1.69200E+06 0.000100000
1.69400E+06 0.000100000
1.69500E+06 0.000100000
1.69600E+06 0.000100000
1.69800E+06 0.000100000
1.70000E+06 0.000100000
1.72000E+06 0.000100000
1.74000E+06 0.000100000
1.76000E+06 0.000100000
1.78000E+06 0.000100000
1.80000E+06 0.000100000
1.82000E+06 0.000100000
1.82200E+06 0.000100000
1.82400E+06 0.000100000
1.82600E+06 0.000100000
1.82800E+06 0.000100000
1.83000E+06 0.000100000
1.83100E+06 0.000100000
1.83200E+06 0.000100000
1.83300E+06 0.000100000
1.83400E+06 0.000100000
1.83500E+06 0.000100000
1.83600E+06 0.000100000
1.83700E+06 0.000100000
1.83800E+06 0.000100000
1.83900E+06 0.000100000
1.84000E+06 0.000100000
1.84200E+06 0.000100000
1.84400E+06 0.000100000
1.84600E+06 0.000100000
1.84800E+06 0.000100000
1.85000E+06 0.000100000
1.85200E+06 0.000100000
1.85400E+06 0.000100000
1.85600E+06 0.000100000
1.85800E+06 0.000100000
1.86000E+06 0.000100000
1.86500E+06 0.000100000
1.87000E+06 0.000100000
1.87500E+06 0.000100000
1.88000E+06 0.000100000
1.88500E+06 0.000100000
1.89000E+06 0.000100000
1.89500E+06 0.000100000
1.90000E+06 0.000100000
1.90500E+06 0.000100000
1.91000E+06 0.000100000
1.91500E+06 0.000100000
1.92000E+06 0.000100000
1.92500E+06 0.000100000
1.93000E+06 0.000100000
1.93500E+06 0.000100000
1.94000E+06 0.000100000
1.95000E+06 0.000100000
1.96000E+06 0.000100000
1.97000E+06 0.000100000
1.98000E+06 0.000100000
1.99000E+06 0.000100000
2.00000E+06 0.000100000
2.05000E+06 0.000100000
2.10000E+06 0.000100000
2.15000E+06 0.000100000
2.20000E+06 0.000100000
2.22000E+06 0.000100000
2.24000E+06 0.000100000
2.26000E+06 0.000100000
2.28000E+06 0.000100000
2.30000E+06 0.000100000
2.30500E+06 0.000100000
2.31000E+06 0.000100000
2.31500E+06 0.000100000
2.32000E+06 0.000100000
2.32100E+06 0.000100000
2.32200E+06 0.000100000
2.32300E+06 0.000100000
2.32400E+06 0.000100000
2.32500E+06 0.000100000
2.32600E+06 0.000100000
2.32700E+06 0.000100000
2.32800E+06 0.000100000
2.32900E+06 0.000100000
2.33000E+06 0.000100000
2.33100E+06 0.000100000
2.33200E+06 0.000100000
2.33300E+06 0.000100000
2.33400E+06 0.000100000
2.33500E+06 0.000100000
2.33600E+06 0.000100000
2.33700E+06 0.000100000
2.33800E+06 0.000100000
2.33900E+06 0.000100000
2.34000E+06 0.000100000
2.34100E+06 0.000100000
2.34200E+06 0.000100000
2.34300E+06 0.000100000
2.34400E+06 0.000100000
2.34500E+06 0.000100000
2.34600E+06 0.000100000
2.34700E+06 0.000100000
2.34800E+06 0.000100000
2.34900E+06 0.000100000
2.35000E+06 0.000100000
2.35100E+06 0.000100000
2.35200E+06 0.000100000
2.35300E+06 0.000100000
2.35400E+06 0.000100000
2.35417E+06 0.000100000
2.35500E+06 0.000100000
2.35532E+06 0.000100000
2.35532E+06 0.000100000
2.35536E+06 0.000100000
2.35700E+06 0.000100000
2.35800E+06 0.000100000
2.35900E+06 0.000100000
2.36000E+06 0.000100000
2.36100E+06 0.000100000
2.36200E+06 0.000100000
2.36300E+06 0.000100000
2.36400E+06 0.000100000
2.36500E+06 0.000100000
2.36600E+06 0.000100000
2.36700E+06 0.000100000
2.36800E+06 0.000100000
2.37000E+06 0.000100000
2.37500E+06 0.000100000
2.38000E+06 0.000100000
2.39000E+06 0.000100000
2.40000E+06 0.000100000
2.41000E+06 0.000100000
2.42000E+06 0.000100000
2.43000E+06 0.000100000
2.43500E+06 0.000100000
2.43750E+06 0.000100000
2.44000E+06 0.000100000
2.44125E+06 0.000100000
2.44250E+06 0.000100000
2.44375E+06 0.000100000
2.44500E+06 0.000100000
2.44625E+06 0.000100000
2.44750E+06 0.000100000
2.44875E+06 0.000100000
2.45000E+06 0.000100000
2.45125E+06 0.000100000
2.45250E+06 0.000100000
2.45375E+06 0.000100000
2.45500E+06 0.000100000
2.45625E+06 0.000100000
2.45750E+06 0.000100000
2.45875E+06 0.000100000
2.46000E+06 0.000100000
2.46125E+06 0.000100000
2.46250E+06 0.000100000
2.46375E+06 0.000100000
2.46500E+06 0.000100000
2.46625E+06 0.000100000
2.46750E+06 0.000100000
2.46875E+06 0.000100000
2.47000E+06 0.000100000
2.47125E+06 0.000100000
2.47250E+06 0.000100000
2.47375E+06 0.000100000
2.47500E+06 0.000100000
2.47625E+06 0.000100000
2.47750E+06 0.000100000
2.47875E+06 0.000100000
2.48000E+06 0.000100000
2.48125E+06 0.000100000
2.48250E+06 0.000100000
2.48375E+06 0.000100000
2.48500E+06 0.000100000
2.48625E+06 0.000100000
2.48750E+06 0.000100000
2.48875E+06 0.000100000
2.49000E+06 0.000100000
2.49125E+06 0.000100000
2.49250E+06 0.000100000
2.49375E+06 0.000100000
2.49500E+06 0.000100000
2.49625E+06 0.000100000
2.49750E+06 0.000100000
2.49875E+06 0.000100000
2.50000E+06 0.000100000
2.50500E+06 0.000100000
2.51000E+06 0.000100000
2.51500E+06 0.000100000
2.52000E+06 0.000100000
2.52500E+06 0.000100000
2.53000E+06 0.000100000
2.53500E+06 0.000100000
2.54000E+06 0.000100000
2.54500E+06 0.000100000
2.55000E+06 0.000100000
2.55500E+06 0.000100000
2.56000E+06 0.000100000
2.56500E+06 0.000100000
2.57000E+06 0.000100000
2.57500E+06 0.000100000
2.58000E+06 0.000100000
2.58500E+06 0.000100000
2.59000E+06 0.000100000
2.59500E+06 0.000100000
2.60000E+06 0.000100000
2.60625E+06 0.000100000
2.61250E+06 0.000100000
2.61875E+06 0.000100000
2.62500E+06 0.000100000
2.63125E+06 0.000100000
2.63750E+06 0.000100000
2.64375E+06 0.000100000
2.65000E+06 0.000100000
2.65625E+06 0.000100000
2.66250E+06 0.000100000
2.66875E+06 0.000100000
2.67500E+06 0.000100000
2.68125E+06 0.000100000
2.68750E+06 0.000100000
2.69375E+06 0.000100000
2.70000E+06 0.000100000
2.71250E+06 0.000100000
2.72500E+06 0.000100000
2.73750E+06 0.000100000
2.75000E+06 0.000100000
2.76250E+06 0.000100000
2.77500E+06 0.000100000
2.78750E+06 0.000100000
2.80000E+06 0.000100000
2.81250E+06 0.000100000
2.82500E+06 0.000100000
2.83750E+06 0.000100000
2.85000E+06 0.000100000
2.86000E+06 0.000100000
2.87000E+06 0.000100000
2.88000E+06 0.000100000
2.88200E+06 0.000100000
2.88400E+06 0.000100000
2.88600E+06 0.000100000
2.88700E+06 0.000100000
2.88800E+06 0.000100000
2.88820E+06 0.000100000
2.88840E+06 0.000100000
2.88850E+06 0.000100000
2.88860E+06 0.000100000
2.88870E+06 0.000100000
2.88880E+06 0.000100000
2.88890E+06 0.000100000
2.88900E+06 0.000100000
2.88910E+06 0.000100000
2.88920E+06 0.000100000
2.88930E+06 0.000100000
2.88940E+06 0.000100000
2.88950E+06 0.000100000
2.88960E+06 0.000100000
2.88970E+06 0.000100000
2.88980E+06 0.000100000
2.89000E+06 0.000100000
2.89050E+06 0.000100000
2.89100E+06 0.000100000
2.89200E+06 0.000100000
2.89400E+06 0.000100000
2.89600E+06 0.000100000
2.89800E+06 0.000100000
2.90000E+06 0.000100000
2.91250E+06 0.000100000
2.92500E+06 0.000100000
2.93750E+06 0.000100000
2.95000E+06 0.000100000
2.97500E+06 0.000100000
3.00000E+06 0.000100000
3.00500E+06 0.000100000
3.00550E+06 0.000100000
3.00600E+06 0.000100000
3.00610E+06 0.000100000
3.00620E+06 0.000100000
3.00630E+06 0.000100000
3.00640E+06 0.000100000
3.00650E+06 0.000100000
3.00660E+06 0.000100000
3.00670E+06 0.000100000
3.00680E+06 0.000100000
3.00690E+06 0.000100000
3.00700E+06 0.000100000
3.00710E+06 0.000100000
3.00720E+06 0.000100000
3.00730E+06 0.000100000
3.00740E+06 0.000100000
3.00750E+06 0.000100000
3.00760E+06 0.000100000
3.00770E+06 0.000100000
3.00780E+06 0.000100000
3.00790E+06 0.000100000
3.00800E+06 0.000100000
3.00820E+06 0.000100000
3.00840E+06 0.000100000
3.00860E+06 0.000100000
3.00880E+06 0.000100000
3.00900E+06 0.000100000
3.01000E+06 0.000100000
3.01500E+06 0.000100000
3.02000E+06 0.000100000
3.04000E+06 0.000100000
3.05000E+06 0.000100000
3.06000E+06 0.000100000
3.08000E+06 0.000100000
3.10000E+06 0.000100000
3.12000E+06 0.000100000
3.14000E+06 0.000100000
3.16000E+06 0.000100000
3.17000E+06 0.000100000
3.18000E+06 0.000100000
3.19000E+06 0.000100000
3.20000E+06 0.000100000
3.20100E+06 0.000100000
3.20200E+06 0.000100000
3.20300E+06 0.000100000
3.20400E+06 0.000100000
3.20500E+06 0.000100000
3.20600E+06 0.000100000
3.20700E+06 0.000100000
3.20800E+06 0.000100000
3.20900E+06 0.000100000
3.21000E+06 0.000100000
3.21050E+06 0.000100000
3.21100E+06 0.000100000
3.21110E+06 0.000100000
3.21120E+06 0.000100000
3.21130E+06 0.000100000
3.21140E+06 0.000100000
3.21150E+06 0.000100000
3.21160E+06 0.000100000
3.21170E+06 0.000100000
3.21180E+06 0.000100000
3.21190E+06 0.000100000
3.21200E+06 0.000100000
3.21220E+06 0.000100000
3.21240E+06 0.000100000
3.21260E+06 0.000100000
3.21280E+06 0.000100000
3.21300E+06 0.000100000
3.21320E+06 0.000100000
3.21340E+06 0.000100000
3.21360E+06 0.000100000
3.21380E+06 0.000100000
3.21400E+06 0.000100000
3.21420E+06 0.000100000
3.21440E+06 0.000100000
3.21460E+06 0.000100000
3.21480E+06 0.000100000
3.21500E+06 0.000100000
3.21600E+06 0.000100000
3.21700E+06 0.000100000
3.21800E+06 0.000100000
3.21900E+06 0.000100000
3.22000E+06 0.000100000
3.22200E+06 0.000100000
3.22400E+06 0.000100000
3.22600E+06 0.000100000
3.22800E+06 0.000100000
3.23000E+06 0.000100000
3.23500E+06 0.000100000
3.24000E+06 0.000100000
3.24500E+06 0.000100000
3.25000E+06 0.000100000
3.25500E+06 0.000100000
3.26000E+06 0.000100000
3.26500E+06 0.000100000
3.27000E+06 0.000100000
3.27500E+06 0.000100000
3.28000E+06 0.000100000
3.28500E+06 0.000100000
3.29000E+06 0.000100000
3.29500E+06 0.000100000
3.30000E+06 0.000100000
3.30500E+06 0.000100000
3.31000E+06 0.000100000
3.31200E+06 0.000100000
3.31400E+06 0.000100000
3.31600E+06 0.000100000
3.31800E+06 0.000100000
3.32000E+06 0.000100000
3.32200E+06 0.000100000
3.32400E+06 0.000100000
3.32600E+06 0.000100000
3.32800E+06 0.000100000
3.33000E+06 0.000100000
3.33200E+06 0.000100000
3.33400E+06 0.000100000
3.33600E+06 0.000100000
3.33800E+06 0.000100000
3.34000E+06 0.000100000
3.34500E+06 0.000100000
3.35000E+06 0.000100000
3.35500E+06 0.000100000
3.36000E+06 0.000100000
3.37000E+06 0.000100000
3.38000E+06 0.000100000
3.39000E+06 0.000100000
3.40000E+06 0.000100000
3.40050E+06 0.000100000
3.41000E+06 0.000100000
3.42000E+06 0.000100000
3.43000E+06 0.000100000
3.43500E+06 0.000100000
3.43600E+06 0.000100000
3.43700E+06 0.000100000
3.43750E+06 0.000100000
3.43800E+06 0.000100000
3.43850E+06 0.000100000
3.43900E+06 0.000100000
3.43950E+06 0.000100000
3.44000E+06 0.000100000
3.44050E+06 0.000100000
3.44100E+06 0.000100000
3.44150E+06 0.000100000
3.44160E+06 0.000100000
3.44170E+06 0.000100000
3.44180E+06 0.000100000
3.44190E+06 0.000100000
3.44200E+06 0.000100000
3.44250E+06 0.000100000
3.44300E+06 0.000100000
3.44350E+06 0.000100000
3.44400E+06 0.000100000
3.44450E+06 0.000100000
3.44500E+06 0.000100000
3.45000E+06 0.000100000
3.45500E+06 0.000100000
3.46000E+06 0.000100000
3.46500E+06 0.000100000
3.47000E+06 0.000100000
3.47500E+06 0.000100000
3.48000E+06 0.000100000
3.49000E+06 0.000100000
3.50000E+06 0.000100000
3.51000E+06 0.000100000
3.52000E+06 0.000100000
3.53000E+06 0.000100000
3.54000E+06 0.000100000
3.55000E+06 0.000100000
3.56000E+06 0.000100000
3.57000E+06 0.000100000
3.58000E+06 0.000100000
3.59000E+06 0.000100000
3.60000E+06 0.000100000
3.61000E+06 0.000100000
3.62000E+06 0.000100000
3.63000E+06 0.000100000
3.64000E+06 0.000100000
3.64200E+06 0.000100000
3.64400E+06 0.000100000
3.64500E+06 0.000100000
3.64520E+06 0.000100000
3.64540E+06 0.000100000
3.64560E+06 0.000100000
3.64580E+06 0.000100000
3.64600E+06 0.000100000
3.64620E+06 0.000100000
3.64640E+06 0.000100000
3.64660E+06 0.000100000
3.64680E+06 0.000100000
3.64700E+06 0.000100000
3.64720E+06 0.000100000
3.64740E+06 0.000100000
3.64760E+06 0.000100000
3.64780E+06 0.000100000
3.64800E+06 0.000100000
3.64900E+06 0.000100000
3.65000E+06 0.000100000
3.65100E+06 0.000100000
3.65200E+06 0.000100000
3.65300E+06 0.000100000
3.65400E+06 0.000100000
3.65500E+06 0.000100000
3.66000E+06 0.000100000
3.66500E+06 0.000100000
3.67000E+06 0.000100000
3.67500E+06 0.000100000
3.68000E+06 0.000100000
3.68500E+06 0.000100000
3.69000E+06 0.000100000
3.69500E+06 0.000100000
3.70000E+06 0.000100000
3.71000E+06 0.000100000
3.72000E+06 0.000100000
3.73000E+06 0.000100000
3.74000E+06 0.000100000
3.74500E+06 0.000100000
3.75000E+06 0.000100000
3.75500E+06 0.000100000
3.76000E+06 0.000100000
3.76100E+06 0.000100000
3.76200E+06 0.000100000
3.76300E+06 0.000100000
3.76400E+06 0.000100000
3.76500E+06 0.000100000
3.76600E+06 0.000100000
3.76700E+06 0.000100000
3.76800E+06 0.000100000
3.76900E+06 0.000100000
3.77000E+06 0.000100000
3.77200E+06 0.000100000
3.77400E+06 0.000100000
3.77600E+06 0.000100000
3.77800E+06 0.000100000
3.78000E+06 0.000100000
3.78500E+06 0.000100000
3.79000E+06 0.000100000
3.79500E+06 0.000100000
3.80000E+06 0.000100000
3.81000E+06 0.000100000
3.82000E+06 0.000100000
3.83000E+06 0.000100000
3.84000E+06 0.000100000
3.85000E+06 0.000100000
3.86000E+06 0.000100000
3.87000E+06 0.000100000
3.88000E+06 0.000100000
3.89000E+06 0.000100000
3.90000E+06 0.000100000
3.92000E+06 0.000100000
3.94000E+06 0.000100000
3.96000E+06 0.000100000
3.98000E+06 0.000100000
4.00000E+06 0.000100000
4.01000E+06 0.000100000
4.02000E+06 0.000100000
4.03000E+06 0.000100000
4.04000E+06 0.000100000
4.05000E+06 0.000100000
4.06000E+06 0.000100000
4.07000E+06 0.000100000
4.08000E+06 0.000100000
4.09000E+06 0.000100000
4.10000E+06 0.000100000
4.11000E+06 0.000100000
4.12000E+06 0.000100000
4.13000E+06 0.000100000
4.14000E+06 0.000100000
4.15000E+06 0.000100000
4.16000E+06 0.000100000
4.16500E+06 0.000100000
4.17000E+06 0.000100000
4.17500E+06 0.000100000
4.18000E+06 0.000100000
4.18500E+06 0.000100000
4.19000E+06 0.000100000
4.19500E+06 0.000100000
4.20000E+06 0.000100000
4.20500E+06 0.000100000
4.21000E+06 0.000100000
4.21500E+06 0.000100000
4.22000E+06 0.000100000
4.22500E+06 0.000100000
4.23000E+06 0.000100000
4.23500E+06 0.000100000
4.24000E+06 0.000100000
4.24500E+06 0.000100000
4.25000E+06 0.000100000
4.25500E+06 0.000100000
4.26000E+06 0.000100000
4.26500E+06 0.000100000
4.27000E+06 0.000100000
4.27500E+06 0.000100000
4.28000E+06 0.000100000
4.28500E+06 0.000100000
4.29000E+06 0.000100000
4.29500E+06 0.000100000
4.30000E+06 0.000100000
4.30500E+06 0.000100000
4.31000E+06 0.000100000
4.31500E+06 0.000100000
4.32000E+06 0.000100000
4.32100E+06 0.000100000
4.32200E+06 0.000100000
4.32300E+06 0.000100000
4.32400E+06 0.000100000
4.32500E+06 0.000100000
4.32600E+06 0.000100000
4.32700E+06 0.000100000
4.32800E+06 0.000100000
4.32900E+06 0.000100000
4.33000E+06 0.000100000
4.33500E+06 0.000100000
4.34000E+06 0.000100000
4.34500E+06 0.000100000
4.35000E+06 0.000100000
4.35500E+06 0.000100000
4.36000E+06 0.000100000
4.37000E+06 0.000100000
4.38000E+06 0.000100000
4.39000E+06 0.000100000
4.40000E+06 0.000100000
4.41000E+06 0.000100000
4.42000E+06 0.000100000
4.43000E+06 0.000100000
4.44000E+06 0.000100000
4.44500E+06 0.000100000
4.45000E+06 0.000100000
4.45500E+06 0.000100000
4.46000E+06 0.000100000
4.46200E+06 0.000100000
4.46400E+06 0.000100000
4.46600E+06 0.000100000
4.46800E+06 0.000100000
4.47000E+06 0.000100000
4.47200E+06 0.000100000
4.47500E+06 0.000100000
4.48000E+06 0.000100000
4.48500E+06 0.000100000
4.49000E+06 0.000100000
4.49500E+06 0.000100000
4.50000E+06 0.000100000
4.50500E+06 0.000100000
4.51000E+06 0.000100000
4.51500E+06 0.000100000
4.52000E+06 0.000100000
4.52100E+06 0.000100000
4.52200E+06 0.000100000
4.52300E+06 0.000100000
4.52400E+06 0.000100000
4.52500E+06 0.000100000
4.52600E+06 0.000100000
4.52700E+06 0.000100000
4.52800E+06 0.000100000
4.52900E+06 0.000100000
4.53000E+06 0.000100000
4.53100E+06 0.000100000
4.53200E+06 0.000100000
4.53300E+06 0.000100000
4.53400E+06 0.000100000
4.53500E+06 0.000100000
4.53600E+06 0.000100000
4.53700E+06 0.000100000
4.53800E+06 0.000100000
4.53900E+06 0.000100000
4.54000E+06 0.000100000
4.54500E+06 0.000100000
4.55000E+06 0.000100000
4.55500E+06 0.000100000
4.56000E+06 0.000100000
4.56500E+06 0.000100000
4.57000E+06 0.000100000
4.57500E+06 0.000100000
4.58000E+06 0.000100000
4.58500E+06 0.000100000
4.59000E+06 0.000100000
4.59100E+06 0.000100000
4.59200E+06 0.000100000
4.59300E+06 0.000100000
4.59400E+06 0.000100000
4.59500E+06 0.000100000
4.59600E+06 0.000100000
4.59700E+06 0.000100000
4.59800E+06 0.000100000
4.59900E+06 0.000100000
4.60000E+06 0.000100000
4.60100E+06 0.000100000
4.60150E+06 0.000100000
4.60200E+06 0.000100000
4.60250E+06 0.000100000
4.60300E+06 0.000100000
4.60400E+06 0.000100000
4.60500E+06 0.000100000
4.61000E+06 0.000100000
4.61500E+06 0.000100000
4.62000E+06 0.000100000
4.62500E+06 0.000100000
4.62600E+06 0.000100000
4.62700E+06 0.000100000
4.62800E+06 0.000100000
4.62900E+06 0.000100000
4.63000E+06 0.000100000
4.63100E+06 0.000100000
4.63200E+06 0.000100000
4.63300E+06 0.000100000
4.63400E+06 0.000100000
4.63500E+06 0.000100000
4.63600E+06 0.000100000
4.63700E+06 0.000100000
4.63800E+06 0.000100000
4.63900E+06 0.000100000
4.64000E+06 0.000100000
4.64500E+06 0.000100000
4.65000E+06 0.000100000
4.65500E+06 0.000100000
4.66000E+06 0.000100000
4.66500E+06 0.000100000
4.67000E+06 0.000100000
4.67500E+06 0.000100000
4.68000E+06 0.000100000
4.68500E+06 0.000100000
4.69000E+06 0.000100000
4.69500E+06 0.000100000
4.70000E+06 0.000100000
4.70500E+06 0.000100000
4.71000E+06 0.000100000
4.71500E+06 0.000100000
4.72000E+06 0.000100000
4.72500E+06 0.000100000
4.73000E+06 0.000100000
4.73500E+06 0.000100000
4.74000E+06 0.000100000
4.74500E+06 0.000100000
4.75000E+06 0.000100000
4.75500E+06 0.000100000
4.76000E+06 0.000100000
4.76500E+06 0.000100000
4.77000E+06 0.000100000
4.77500E+06 0.000100000
4.78000E+06 0.000100000
4.78500E+06 0.000100000
4.79000E+06 0.000100000
4.79500E+06 0.000100000
4.80000E+06 0.000100000
4.80500E+06 0.000100000
4.81000E+06 0.000100000
4.81500E+06 0.000100000
4.82000E+06 0.000100000
4.82500E+06 0.000100000
4.83000E+06 0.000100000
4.83200E+06 0.000100000
4.83400E+06 0.000100000
4.83500E+06 0.000100000
4.83600E+06 0.000100000
4.83700E+06 0.000100000
4.83800E+06 0.000100000
4.83900E+06 0.000100000
4.84000E+06 0.000100000
4.84100E+06 0.000100000
4.84200E+06 0.000100000
4.84300E+06 0.000100000
4.84400E+06 0.000100000
4.84500E+06 0.000100000
4.85000E+06 0.000100000
4.85500E+06 0.000100000
4.86000E+06 0.000100000
4.87000E+06 0.000100000
4.88000E+06 0.000100000
4.89000E+06 0.000100000
4.90000E+06 0.000100000
4.91000E+06 0.000100000
4.92000E+06 0.000100000
4.93000E+06 0.000100000
4.94000E+06 0.000100000
4.95000E+06 0.000100000
4.96000E+06 0.000100000
4.97000E+06 0.000100000
4.98000E+06 0.000100000
4.99000E+06 0.000100000
5.00000E+06 0.000100000
5.01000E+06 0.000100000
5.02000E+06 0.000100000
5.03000E+06 0.000100000
5.04000E+06 0.000100000
5.05000E+06 0.000100000
5.06000E+06 0.000100000
5.07000E+06 0.000100000
5.08000E+06 0.000100000
5.09000E+06 0.000100000
5.10000E+06 0.000100000
5.10200E+06 0.000100000
5.10400E+06 0.000100000
5.10600E+06 0.000100000
5.10800E+06 0.000100000
5.11000E+06 0.000100000
5.11200E+06 0.000100000
5.11400E+06 0.000100000
5.11500E+06 0.000100000
5.11600E+06 0.000100000
5.11700E+06 0.000100000
5.11800E+06 0.000100000
5.11900E+06 0.000100000
5.12000E+06 0.000100000
5.12100E+06 0.000100000
5.12200E+06 0.000100000
5.12300E+06 0.000100000
5.12400E+06 0.000100000
5.12500E+06 0.000100000
5.12600E+06 0.000100000
5.12700E+06 0.000100000
5.12800E+06 0.000100000
5.12900E+06 0.000100000
5.13000E+06 0.000100000
5.13100E+06 0.000100000
5.13200E+06 0.000100000
5.13300E+06 0.000100000
5.13400E+06 0.000100000
5.13500E+06 0.000100000
5.13600E+06 0.000100000
5.13700E+06 0.000100000
5.13800E+06 0.000100000
5.13900E+06 0.000100000
5.14000E+06 0.000100000
5.14200E+06 0.000100000
5.14400E+06 0.000100000
5.14600E+06 0.000100000
5.14800E+06 0.000100000
5.15000E+06 0.000100000
5.15500E+06 0.000100000
5.16000E+06 0.000100000
5.16500E+06 0.000100000
5.17000E+06 0.000100000
5.18000E+06 0.000100000
5.19000E+06 0.000100000
5.20000E+06 0.000100000
5.21000E+06 0.000100000
5.22000E+06 0.000100000
5.23000E+06 0.000100000
5.24000E+06 0.000100000
5.25000E+06 0.000100000
5.26000E+06 0.000100000
5.27000E+06 0.000100000
5.28000E+06 0.000100000
5.29000E+06 0.000100000
5.30000E+06 0.000100000
5.31000E+06 0.000100000
5.32000E+06 0.000100000
5.33000E+06 0.000100000
5.34000E+06 0.000100000
5.35000E+06 0.000100000
5.35500E+06 0.000100000
5.36000E+06 0.000100000
5.36500E+06 0.000100000
5.36600E+06 0.000100000
5.36700E+06 0.000100000
5.36800E+06 0.000100000
5.36900E+06 0.000100000
5.37000E+06 0.000100000
5.37100E+06 0.000100000
5.37200E+06 0.000100000
5.37300E+06 0.000100000
5.37400E+06 0.000100000
5.37500E+06 0.000100000
5.38000E+06 0.000100000
5.38500E+06 0.000100000
5.39000E+06 0.000100000
5.39500E+06 0.000100000
5.40000E+06 0.000100000
5.41000E+06 0.000100000
5.42000E+06 0.000100000
5.43000E+06 0.000100000
5.44000E+06 0.000100000
5.45000E+06 0.000100000
5.46000E+06 0.000100000
5.47000E+06 0.000100000
5.48000E+06 0.000100000
5.49000E+06 0.000100000
5.50000E+06 0.000100000
5.51000E+06 0.000100000
5.52000E+06 0.000100000
5.53000E+06 0.000100000
5.54000E+06 0.000100000
5.55000E+06 0.000100000
5.56000E+06 0.000100000
5.57000E+06 0.000100000
5.58000E+06 0.000100000
5.59000E+06 0.000100000
5.60000E+06 0.000100000
5.60500E+06 0.000100000
5.61000E+06 0.000100000
5.61500E+06 0.000100000
5.62000E+06 0.000100000
5.62500E+06 0.000100000
5.63000E+06 0.000100000
5.63500E+06 0.000100000
5.63950E+06 0.000100000
5.63954E+06 0.000100000
5.63954E+06 0.000100000
5.63960E+06 0.000100000
5.64000E+06 0.000100000
5.64500E+06 0.000100000
5.65000E+06 0.000100000
5.65500E+06 0.000100000
5.66000E+06 0.000100000
5.66200E+06 0.000100000
5.66500E+06 0.000100000
5.66800E+06 0.000100000
5.67000E+06 0.000100000
5.67200E+06 0.000100000
5.67500E+06 0.000100000
5.67600E+06 0.000100000
5.67800E+06 0.000100000
5.68000E+06 0.000100000
5.68500E+06 0.000100000
5.69000E+06 0.000100000
5.69500E+06 0.000100000
5.70000E+06 0.000100000
5.70500E+06 0.000100000
5.71000E+06 0.000100000
5.71500E+06 0.000100000
5.72000E+06 0.000100000
5.72500E+06 0.000100000
5.73000E+06 0.000100000
5.73500E+06 0.000100000
5.74000E+06 0.000100000
5.74500E+06 0.000100000
5.75000E+06 0.000100000
5.75500E+06 0.000100000
5.76000E+06 0.000100000
5.76500E+06 0.000100000
5.77000E+06 0.000100000
5.77500E+06 0.000100000
5.78000E+06 0.000100000
5.78500E+06 0.000100000
5.79000E+06 0.000100000
5.79500E+06 0.000100000
5.80000E+06 0.000100000
5.80500E+06 0.000100000
5.81000E+06 0.000100000
5.81500E+06 0.000100000
5.82000E+06 0.000100000
5.82500E+06 0.000100000
5.83000E+06 0.000100000
5.83500E+06 0.000100000
5.84000E+06 0.000100000
5.84500E+06 0.000100000
5.85000E+06 0.000100000
5.85500E+06 0.000100000
5.86000E+06 0.000100000
5.86500E+06 0.000100000
5.87000E+06 0.000100000
5.87500E+06 0.000100000
5.88000E+06 0.000100000
5.88500E+06 0.000100000
5.89000E+06 0.000100000
5.89500E+06 0.000100000
5.90000E+06 0.000100000
5.90500E+06 0.000100000
5.90800E+06 0.000100000
5.91000E+06 0.000100000
5.91200E+06 0.000100000
5.91500E+06 0.000100000
5.91600E+06 0.000100000
5.91700E+06 0.000100000
5.91800E+06 0.000100000
5.91900E+06 0.000100000
5.92000E+06 0.000100000
5.92100E+06 0.000100000
5.92200E+06 0.000100000
5.92300E+06 0.000100000
5.92400E+06 0.000100000
5.92500E+06 0.000100000
5.92600E+06 0.000100000
5.92700E+06 0.000100000
5.92800E+06 0.000100000
5.92900E+06 0.000100000
5.93000E+06 0.000100000
5.93500E+06 0.000100000
5.94000E+06 0.000100000
5.94500E+06 0.000100000
5.95000E+06 0.000100000
5.95500E+06 0.000100000
5.96000E+06 0.000100000
5.96500E+06 0.000100000
5.97000E+06 0.000100000
5.97500E+06 0.000100000
5.98000E+06 0.000100000
5.98200E+06 0.000100000
5.98400E+06 0.000100000
5.98500E+06 0.000100000
5.98600E+06 0.000100000
5.98800E+06 0.000100000
5.99000E+06 0.000100000
5.99200E+06 0.000100000
5.99400E+06 0.000100000
5.99500E+06 0.000100000
5.99600E+06 0.000100000
5.99700E+06 0.000100000
5.99800E+06 0.000100000
5.99900E+06 0.000100000
6.00000E+06 0.000100000
6.00100E+06 0.000100000
6.00200E+06 0.000100000
6.00300E+06 0.000100000
6.00400E+06 0.000100000
6.00600E+06 0.000100000
6.00800E+06 0.000100000
6.01000E+06 0.000100000
6.01200E+06 0.000100000
6.01400E+06 0.000100000
6.01500E+06 0.000100000
6.01600E+06 0.000100000
6.01800E+06 0.000100000
6.02000E+06 0.000100000
6.02500E+06 0.000100000
6.03000E+06 0.000100000
6.03500E+06 0.000100000
6.04000E+06 0.000100000
6.04500E+06 0.000100000
6.04800E+06 0.000100000
6.05000E+06 0.000100000
6.05200E+06 0.000100000
6.05400E+06 0.000100000
6.05500E+06 0.000100000
6.05600E+06 0.000100000
6.05700E+06 0.000100000
6.05800E+06 0.000100000
6.05900E+06 0.000100000
6.06000E+06 0.000100000
6.06100E+06 0.000100000
6.06200E+06 0.000100000
6.06300E+06 0.000100000
6.06400E+06 0.000100000
6.06500E+06 0.000100000
6.06600E+06 0.000100000
6.06700E+06 0.000100000
6.06800E+06 0.000100000
6.07000E+06 0.000100000
6.07100E+06 0.000100000
6.07200E+06 0.000100000
6.07300E+06 0.000100000
6.07400E+06 0.000100000
6.07500E+06 0.000100000
6.07600E+06 0.000100000
6.07700E+06 0.000100000
6.07800E+06 0.000100000
6.07900E+06 0.000100000
6.08000E+06 0.000100000
6.08200E+06 0.000100000
6.08400E+06 0.000100000
6.08500E+06 0.000100000
6.08600E+06 0.000100000
6.08800E+06 0.000100000
6.09000E+06 0.000100000
6.09200E+06 0.000100000
6.09400E+06 0.000100000
6.09600E+06 0.000100000
6.09800E+06 0.000100000
6.10000E+06 0.000100000
6.10200E+06 0.000100000
6.10400E+06 0.000100000
6.10600E+06 0.000100000
6.10800E+06 0.000100000
6.11000E+06 0.000100000
6.11500E+06 0.000100000
6.12000E+06 0.000100000
6.12500E+06 0.000100000
6.13000E+06 0.000100000
6.14000E+06 0.000100000
6.15000E+06 0.000100000
6.16000E+06 0.000100000
6.17000E+06 0.000100000
6.17500E+06 0.000100000
6.18000E+06 0.000100000
6.19000E+06 0.000100000
6.20000E+06 0.000100000
6.21000E+06 0.000100000
6.22000E+06 0.000100000
6.22500E+06 0.000100000
6.23000E+06 0.000100000
6.24000E+06 0.000100000
6.25000E+06 0.000100000
6.26000E+06 0.000100000
6.27000E+06 0.000100000
6.27100E+06 0.000100000
6.27217E+06 0.000100000
6.27217E+06 0.000100000
6.27220E+06 0.000100000
6.27230E+06 0.000100000
6.27500E+06 0.000100000
6.28000E+06 0.000100000
6.29000E+06 0.000100000
6.30000E+06 0.000100000
6.30200E+06 0.000100000
6.30400E+06 0.000100000
6.30600E+06 0.000100000
6.30800E+06 0.000100000
6.31000E+06 0.000100000
6.31200E+06 0.000100000
6.31400E+06 0.000100000
6.31600E+06 0.000100000
6.31800E+06 0.000100000
6.32000E+06 0.000100000
6.32200E+06 0.000100000
6.32400E+06 0.000100000
6.32500E+06 0.000100000
6.32600E+06 0.000100000
6.32800E+06 0.000100000
6.33000E+06 0.000100000
6.33200E+06 0.000100000
6.33400E+06 0.000100000
6.33600E+06 0.000100000
6.33800E+06 0.000100000
6.34000E+06 0.000100000
6.34200E+06 0.000100000
6.34400E+06 0.000100000
6.34600E+06 0.000100000
6.34800E+06 0.000100000
6.35000E+06 0.000100000
6.35200E+06 0.000100000
6.35400E+06 0.000100000
6.35600E+06 0.000100000
6.35800E+06 0.000100000
6.36000E+06 0.000100000
6.36200E+06 0.000100000
6.36400E+06 0.000100000
6.36600E+06 0.000100000
6.36800E+06 0.000100000
6.37000E+06 0.000100000
6.37200E+06 0.000100000
6.37400E+06 0.000100000
6.37500E+06 0.000100000
6.37600E+06 0.000100000
6.37800E+06 0.000100000
6.38000E+06 0.000100000
6.38200E+06 0.000100000
6.38400E+06 0.000100000
6.38500E+06 0.000100000
6.38600E+06 0.000100000
6.38800E+06 0.000100000
6.39000E+06 0.000100000
6.39200E+06 0.000100000
6.39400E+06 0.000100000
6.39500E+06 0.000100000
6.39600E+06 0.000100000
6.39800E+06 0.000100000
6.40000E+06 0.000100000
6.40200E+06 0.000100000
6.40400E+06 0.000100000
6.40500E+06 0.000100000
6.40600E+06 0.000100000
6.40800E+06 0.000100000
6.41000E+06 0.000100000
6.41200E+06 0.000100000
6.41400E+06 0.000100000
6.41500E+06 0.000100000
6.41600E+06 0.000100000
6.41800E+06 0.000100000
6.42000E+06 0.000100000
6.42200E+06 0.000100000
6.42400E+06 0.000100000
6.42500E+06 0.000100000
6.42600E+06 0.000100000
6.42800E+06 0.000100000
6.43000E+06 0.000100000
6.43089E+06 0.000100000
6.43089E+06 0.000100000
6.43090E+06 0.000100000
6.43100E+06 0.000100000
6.43100E+06 0.000100000
6.43200E+06 0.000100000
6.43400E+06 0.000100000
6.43600E+06 0.000100000
6.43800E+06 0.000100000
6.44000E+06 0.000100000
6.44200E+06 0.000100000
6.44400E+06 0.000100000
6.44600E+06 0.000100000
6.44800E+06 0.000100000
6.45000E+06 0.000100000
6.45100E+06 0.000100000
6.45200E+06 0.000100000
6.45210E+06 0.000100000
6.45215E+06 0.000100000
6.45215E+06 0.000100000
6.45220E+06 0.000100000
6.45220E+06 0.000100000
6.45230E+06 0.000100000
6.45400E+06 0.000100000
6.45600E+06 0.000100000
6.45800E+06 0.000100000
6.46000E+06 0.000100000
6.46200E+06 0.000100000
6.46400E+06 0.000100000
6.46600E+06 0.000100000
6.46800E+06 0.000100000
6.47000E+06 0.000100000
6.47200E+06 0.000100000
6.47400E+06 0.000100000
6.47500E+06 0.000100000
6.47600E+06 0.000100000
6.47800E+06 0.000100000
6.48000E+06 0.000100000
6.48200E+06 0.000100000
6.48400E+06 0.000100000
6.48600E+06 0.000100000
6.48800E+06 0.000100000
6.49000E+06 0.000100000
6.49200E+06 0.000100000
6.49400E+06 0.000100000
6.49600E+06 0.000100000
6.49800E+06 0.000100000
6.50000E+06 0.000100000
6.50200E+06 0.000100000
6.50400E+06 0.000100000
6.50600E+06 0.000100000
6.50800E+06 0.000100000
6.51000E+06 0.000100000
6.51200E+06 0.000100000
6.51400E+06 0.000100000
6.51600E+06 0.000100000
6.51646E+06 0.000100000
6.51650E+06 0.000100000
6.51660E+06 0.000100000
6.51660E+06 0.000100000
6.51800E+06 0.000100000
6.52000E+06 0.000100000
6.52200E+06 0.000100000
6.52400E+06 0.000100000
6.52500E+06 0.000100000
6.52600E+06 0.000100000
6.52800E+06 0.000100000
6.53000E+06 0.000100000
6.53200E+06 0.000100000
6.53400E+06 0.000100000
6.53600E+06 0.000100000
6.53800E+06 0.000100000
6.54000E+06 0.000100000
6.54200E+06 0.000100000
6.54400E+06 0.000100000
6.54600E+06 0.000100000
6.54800E+06 0.000100000
6.55000E+06 0.000100000
6.55200E+06 0.000100000
6.55400E+06 0.000100000
6.55600E+06 0.000100000
6.55800E+06 0.000100000
6.56000E+06 0.000100000
6.56200E+06 0.000100000
6.56400E+06 0.000100000
6.56600E+06 0.000100000
6.56800E+06 0.000100000
6.57000E+06 0.000100000
6.57200E+06 0.000100000
6.57400E+06 0.000100000
6.57500E+06 0.000100000
6.57600E+06 0.000100000
6.57800E+06 0.000100000
6.58000E+06 0.000100000
6.58200E+06 0.000100000
6.58400E+06 0.000100000
6.58600E+06 0.000100000
6.58800E+06 0.000100000
6.59000E+06 0.000100000
6.59200E+06 0.000100000
6.59400E+06 0.000100000
6.59600E+06 0.000100000
6.59800E+06 0.000100000
6.60000E+06 0.000100000
6.60200E+06 0.000100000
6.60400E+06 0.000100000
6.60600E+06 0.000100000
6.60800E+06 0.000100000
6.61000E+06 0.000100000
6.61200E+06 0.000100000
6.61400E+06 0.000100000
6.61600E+06 0.000100000
6.61800E+06 0.000100000
6.62000E+06 0.000100000
6.62200E+06 0.000100000
6.62400E+06 0.000100000
6.62500E+06 0.000100000
6.62600E+06 0.000100000
6.62800E+06 0.000100000
6.63000E+06 0.000100000
6.63200E+06 0.000100000
6.63400E+06 0.000100000
6.63600E+06 0.000100000
6.63800E+06 0.000100000
6.64000E+06 0.000100000
6.64200E+06 0.000100000
6.64400E+06 0.000100000
6.64600E+06 0.000100000
6.64800E+06 0.000100000
6.65000E+06 0.000100000
6.65200E+06 0.000100000
6.65400E+06 0.000100000
6.65500E+06 0.000100000
6.65600E+06 0.000100000
6.65800E+06 0.000100000
6.66000E+06 0.000100000
6.66200E+06 0.000100000
6.66400E+06 0.000100000
6.66500E+06 0.000100000
6.66600E+06 0.000100000
6.66800E+06 0.000100000
6.67000E+06 0.000100000
6.67200E+06 0.000100000
6.67400E+06 0.000100000
6.67500E+06 0.000100000
6.67600E+06 0.000100000
6.67800E+06 0.000100000
6.68000E+06 0.000100000
6.68200E+06 0.000100000
6.68400E+06 0.000100000
6.68500E+06 0.000100000
6.68600E+06 0.000100000
6.68800E+06 0.000100000
6.69000E+06 0.000100000
6.69200E+06 0.000100000
6.69400E+06 0.000100000
6.69500E+06 0.000100000
6.69600E+06 0.000100000
6.69800E+06 0.000100000
6.70000E+06 0.000100000
6.71000E+06 0.000100000
6.72000E+06 0.000100000
6.72500E+06 0.000100000
6.73000E+06 0.000100000
6.74000E+06 0.000100000
6.75000E+06 0.000100000
6.76000E+06 0.000100000
6.77000E+06 0.000100000
6.77500E+06 0.000100000
6.78000E+06 0.000100000
6.79000E+06 0.000100000
6.79500E+06 0.000100000
6.80000E+06 0.000100000
6.80500E+06 0.000100000
6.81000E+06 0.000100000
6.82000E+06 0.000100000
6.82500E+06 0.000100000
6.83000E+06 0.000100000
6.84000E+06 0.000100000
6.85000E+06 0.000100000
6.86000E+06 0.000100000
6.87500E+06 0.000100000
6.88000E+06 0.000100000
6.90000E+06 0.000100000
6.92000E+06 0.000100000
6.92500E+06 0.000100000
6.94000E+06 0.000100000
6.95000E+06 0.000100000
6.96000E+06 0.000100000
6.97500E+06 0.000100000
6.98000E+06 0.000100000
7.00000E+06 0.000100000
7.02000E+06 0.000100000
7.02500E+06 0.000100000
7.03000E+06 0.000100000
7.03500E+06 0.000100000
7.04000E+06 0.000100000
7.04500E+06 0.000100000
7.05000E+06 0.000100000
7.05500E+06 0.000100000
7.06000E+06 0.000100000
7.06500E+06 0.000100000
7.07000E+06 0.000100000
7.07500E+06 0.000100000
7.08000E+06 0.000100000
7.09000E+06 0.000100000
7.10000E+06 0.000100000
7.12000E+06 0.000100000
7.12500E+06 0.000100000
7.14000E+06 0.000100000
7.15000E+06 0.000100000
7.16000E+06 0.000100000
7.17000E+06 0.000100000
7.17500E+06 0.000100000
7.18000E+06 0.000100000
7.19000E+06 0.000100000
7.20000E+06 0.000100000
7.21000E+06 0.000100000
7.22000E+06 0.000100000
7.22500E+06 0.000100000
7.23000E+06 0.000100000
7.24000E+06 0.000100000
7.25000E+06 0.000100000
7.26000E+06 0.000100000
7.27500E+06 0.000100000
7.28000E+06 0.000100000
7.30000E+06 0.000100000
7.32000E+06 0.000100000
7.32500E+06 0.000100000
7.33000E+06 0.000100000
7.33500E+06 0.000100000
7.34000E+06 0.000100000
7.34500E+06 0.000100000
7.35000E+06 0.000100000
7.35300E+06 0.000100000
7.35330E+06 0.000100000
7.35330E+06 0.000100000
7.35340E+06 0.000100000
7.35340E+06 0.000100000
7.35500E+06 0.000100000
7.36000E+06 0.000100000
7.36500E+06 0.000100000
7.37000E+06 0.000100000
7.37500E+06 0.000100000
7.38000E+06 0.000100000
7.38500E+06 0.000100000
7.39000E+06 0.000100000
7.40000E+06 0.000100000
7.42000E+06 0.000100000
7.42500E+06 0.000100000
7.44000E+06 0.000100000
7.45000E+06 0.000100000
7.46000E+06 0.000100000
7.47500E+06 0.000100000
7.48000E+06 0.000100000
7.50000E+06 0.000100000
7.52000E+06 0.000100000
7.52500E+06 0.000100000
7.54000E+06 0.000100000
7.55000E+06 0.000100000
7.56000E+06 0.000100000
7.56560E+06 0.000100000
7.56560E+06 0.000100000
7.56565E+06 0.000100000
7.56580E+06 0.000100000
7.56580E+06 0.000100000
7.56800E+06 0.000100000
7.57500E+06 0.000100000
7.60000E+06 0.000100000
7.61360E+06 0.000100000
7.61360E+06 0.000100000
7.62500E+06 0.000100000
7.64000E+06 0.000100000
7.65000E+06 0.000100000
7.66000E+06 0.000100000
7.67500E+06 0.000100000
7.68000E+06 0.000100000
7.70000E+06 0.000100000
7.72500E+06 0.000100000
7.74000E+06 0.000100000
7.75000E+06 0.000100000
7.76000E+06 0.000100000
7.77500E+06 0.000100000
7.78000E+06 0.000100000
7.80000E+06 0.000100000
7.82000E+06 0.000100000
7.82500E+06 0.000100000
7.84000E+06 0.000100000
7.85000E+06 0.000100000
7.86000E+06 0.000100000
7.87500E+06 0.000100000
7.88000E+06 0.000100000
7.90000E+06 0.000100000
7.92000E+06 0.000100000
7.92500E+06 0.000100000
7.94000E+06 0.000100000
7.95000E+06 0.000100000
7.96000E+06 0.000100000
7.97500E+06 0.000100000
7.98000E+06 0.000100000
8.00000E+06 0.000100000
8.02000E+06 0.000100000
8.02500E+06 0.000100000
8.04000E+06 0.000100000
8.06000E+06 0.000100000
8.07500E+06 0.000100000
8.08000E+06 0.000100000
8.10000E+06 0.000100000
8.12500E+06 0.000100000
8.15000E+06 0.000100000
8.17500E+06 0.000100000
8.20000E+06 0.000100000
8.22500E+06 0.000100000
8.24000E+06 0.000100000
8.25000E+06 0.000100000
8.27500E+06 0.000100000
8.28000E+06 0.000100000
8.30000E+06 0.000100000
8.32000E+06 0.000100000
8.32500E+06 0.000100000
8.34000E+06 0.000100000
8.35000E+06 0.000100000
8.36000E+06 0.000100000
8.37500E+06 0.000100000
8.40000E+06 0.000100000
8.42500E+06 0.000100000
8.44000E+06 0.000100000
8.45000E+06 0.000100000
8.46000E+06 0.000100000
8.47500E+06 0.000100000
8.50000E+06 0.000100000
8.52000E+06 0.000100000
8.52500E+06 0.000100000
8.54000E+06 0.000100000
8.55000E+06 0.000100000
8.56000E+06 0.000100000
8.57500E+06 0.000100000
8.60000E+06 0.000100000
8.62000E+06 0.000100000
8.62500E+06 0.000100000
8.64000E+06 0.000100000
8.65000E+06 0.000100000
8.66000E+06 0.000100000
8.67500E+06 0.000100000
8.68000E+06 0.000100000
8.70000E+06 0.000100000
8.72000E+06 0.000100000
8.72500E+06 0.000100000
8.74000E+06 0.000100000
8.74500E+06 0.000100000
8.75000E+06 0.000100000
8.76000E+06 0.000100000
8.77500E+06 0.000100000
8.78000E+06 0.000100000
8.80000E+06 0.000100000
8.82000E+06 0.000100000
8.82500E+06 0.000100000
8.84000E+06 0.000100000
8.85000E+06 0.000100000
8.86000E+06 0.000100000
8.87500E+06 0.000100000
8.88000E+06 0.000100000
8.90000E+06 0.000100000
8.92000E+06 0.000100000
8.92500E+06 0.000100000
8.94000E+06 0.000100000
8.95000E+06 0.000100000
8.96000E+06 0.000100000
8.97500E+06 0.000100000
8.98000E+06 0.000100000
8.98700E+06 0.000100000
9.00000E+06 0.000100000
9.02000E+06 0.000100000
9.02500E+06 0.000100000
9.04000E+06 0.000100000
9.05000E+06 0.000100000
9.06000E+06 0.000100000
9.07500E+06 0.000100000
9.08000E+06 0.000100000
9.10000E+06 0.000100000
9.12000E+06 0.000100000
9.12500E+06 0.000100000
9.13600E+06 0.000100000
9.14000E+06 0.000100000
9.15000E+06 0.000100000
9.16000E+06 0.000100000
9.17500E+06 0.000100000
9.18000E+06 0.000100000
9.20000E+06 0.000100000
9.22500E+06 0.000100000
9.24800E+06 0.000100000
9.25000E+06 0.000100000
9.27500E+06 0.000100000
9.30000E+06 0.000100000
9.32500E+06 0.000100000
9.35000E+06 0.000100000
9.37500E+06 0.000100000
9.40000E+06 0.000100000
9.42500E+06 0.000100000
9.43100E+06 0.000100000
9.43138E+06 0.000100000
9.43138E+06 0.000100000
9.43140E+06 0.000100000
9.43150E+06 0.000100000
9.45000E+06 0.000100000
9.47000E+06 0.000100000
9.47500E+06 0.000100000
9.50000E+06 0.000100000
9.50800E+06 0.000100000
9.52500E+06 0.000100000
9.55000E+06 0.000100000
9.57500E+06 0.000100000
9.60000E+06 0.000100000
9.62500E+06 0.000100000
9.65000E+06 0.000100000
9.67500E+06 0.000100000
9.67600E+06 0.000100000
9.70000E+06 0.000100000
9.72000E+06 0.000100000
9.72500E+06 0.000100000
9.74000E+06 0.000100000
9.75000E+06 0.000100000
9.76000E+06 0.000100000
9.77500E+06 0.000100000
9.78000E+06 0.000100000
9.80000E+06 0.000100000
9.82500E+06 0.000100000
9.85000E+06 0.000100000
9.87500E+06 0.000100000
9.90000E+06 0.000100000
9.92500E+06 0.000100000
9.95000E+06 0.000100000
9.97500E+06 0.000100000
1.00000E+07 0.000100000
1.00500E+07 0.000100000
1.01000E+07 0.000100000
1.01220E+07 0.000100000
1.01500E+07 0.000100000
1.01890E+07 0.000100000
1.01895E+07 0.000100000
1.01895E+07 0.000100000
1.01900E+07 0.000100000
1.01900E+07 0.000100000
1.02000E+07 0.000100000
1.02020E+07 0.000100000
1.02445E+07 0.000100000
1.02445E+07 0.000100000
1.02450E+07 0.000100000
1.02450E+07 0.000100000
1.02470E+07 0.000100000
1.02500E+07 0.000100000
1.03000E+07 0.000100000
1.03500E+07 0.000100000
1.03720E+07 0.000100000
1.03722E+07 0.000100000
1.03722E+07 0.000100000
1.04000E+07 0.000100000
1.04500E+07 0.000100000
1.04650E+07 0.000100000
1.04650E+07 0.000100000
1.04680E+07 0.000100000
1.05000E+07 0.000100000
1.05260E+07 0.000100000
1.05275E+07 0.000100000
1.05280E+07 0.000100000
1.05280E+07 0.000100000
1.05500E+07 0.000100000
1.05600E+07 0.000100000
1.05602E+07 0.000100000
1.05603E+07 0.000100000
1.05630E+07 0.000100000
1.06000E+07 0.000100000
1.06500E+07 0.000100000
1.06670E+07 0.000100000
1.06671E+07 0.000100000
1.06671E+07 0.000100000
1.06690E+07 0.000100000
1.06800E+07 0.000100000
1.06900E+07 0.000100000
1.07000E+07 0.000100000
1.07100E+07 0.000100000
1.07200E+07 0.000100000
1.07300E+07 0.000100000
1.07400E+07 0.000100000
1.07500E+07 0.000100000
1.07600E+07 0.000100000
1.07700E+07 0.000100000
1.07800E+07 0.000100000
1.07900E+07 0.000100000
1.08000E+07 0.000100000
1.08100E+07 0.000100000
1.08200E+07 0.000100000
1.08300E+07 0.000100000
1.08400E+07 0.000100000
1.08500E+07 0.000100000
1.08600E+07 0.000100000
1.08700E+07 0.000100000
1.08800E+07 0.000100000
1.08900E+07 0.000100000
1.09000E+07 0.000100000
1.09100E+07 0.000100000
1.09200E+07 0.000100000
1.09300E+07 0.000100000
1.09400E+07 0.000100000
1.09500E+07 0.000100000
1.09600E+07 0.000100000
1.09700E+07 0.000100000
1.09800E+07 0.000100000
1.09900E+07 0.000100000
1.10000E+07 0.000100000
1.10070E+07 0.000100000
1.10090E+07 0.000100000
1.10090E+07 0.000100000
1.10500E+07 0.000100000
1.11000E+07 0.000100000
1.11500E+07 0.000100000
1.12000E+07 0.000100000
1.12200E+07 0.000100000
1.12500E+07 0.000100000
1.13000E+07 0.000100000
1.13500E+07 0.000100000
1.14000E+07 0.000100000
1.14500E+07 0.000100000
1.15000E+07 0.000100000
1.15200E+07 0.000100000
1.15400E+07 0.000100000
1.15500E+07 0.000100000
1.16000E+07 0.000100000
1.16430E+07 0.000100000
1.16480E+07 0.000100000
1.16480E+07 0.000100000
1.16480E+07 0.000100000
1.16480E+07 0.000100000
1.16500E+07 0.000100000
1.17000E+07 0.000100000
1.17500E+07 0.000100000
1.17787E+07 0.000100000
1.17787E+07 0.000100000
1.17790E+07 0.000100000
1.17790E+07 0.000100000
1.17960E+07 0.000100000
1.17970E+07 0.000100000
1.17970E+07 0.000100000
1.18000E+07 0.000100000
1.18500E+07 0.000100000
1.19000E+07 0.000100000
1.19500E+07 0.000100000
1.19700E+07 0.000100000
1.20000E+07 0.000100000
1.20500E+07 0.000100000
1.21000E+07 0.000100000
1.21100E+07 0.000100000
1.21500E+07 0.000100000
1.21610E+07 0.000100000
1.22000E+07 0.000100000
1.22467E+07 0.000100000
1.22470E+07 0.000100000
1.22480E+07 0.000100000
1.22500E+07 0.000100000
1.23000E+07 0.000100000
1.23317E+07 0.000100000
1.23320E+07 0.000100000
1.23330E+07 0.000100000
1.23500E+07 0.000100000
1.23630E+07 0.000100000
1.23700E+07 0.000100000
1.24000E+07 0.000100000
1.24500E+07 0.000100000
1.25000E+07 0.000100000
1.25500E+07 0.000100000
1.25800E+07 0.000100000
1.26000E+07 0.000100000
1.26200E+07 0.000100000
1.26500E+07 0.000100000
1.27000E+07 0.000100000
1.27500E+07 0.000100000
1.28000E+07 0.000100000
1.28090E+07 0.000100000
1.28090E+07 0.000100000
1.28130E+07 0.000100000
1.28500E+07 0.000100000
1.28924E+07 0.000100000
1.28924E+07 0.000100000
1.29000E+07 0.000100000
1.29500E+07 0.000100000
1.30000E+07 0.000100000
1.30500E+07 0.000100000
1.31000E+07 0.000100000
1.31500E+07 0.000100000
1.32000E+07 0.000100000
1.32247E+07 0.000100000
1.32250E+07 0.000100000
1.32270E+07 0.000100000
1.32500E+07 0.000100000
1.33000E+07 0.000100000
1.33180E+07 0.000100000
1.33200E+07 0.000100000
1.33204E+07 0.000100000
1.33500E+07 0.000100000
1.34000E+07 0.000100000
1.34500E+07 0.000100000
1.35000E+07 0.000100000
1.35500E+07 0.000100000
1.36000E+07 0.000100000
1.36020E+07 0.000100000
1.36030E+07 0.000100000
1.36032E+07 0.000100000
1.36100E+07 0.000100000
1.36200E+07 0.000100000
1.36300E+07 0.000100000
1.36400E+07 0.000100000
1.36500E+07 0.000100000
1.36600E+07 0.000100000
1.36700E+07 0.000100000
1.36744E+07 0.000100000
1.36744E+07 0.000100000
1.36800E+07 0.000100000
1.36900E+07 0.000100000
1.37000E+07 0.000100000
1.37100E+07 0.000100000
1.37200E+07 0.000100000
1.37300E+07 0.000100000
1.37400E+07 0.000100000
1.37500E+07 0.000100000
1.37600E+07 0.000100000
1.37700E+07 0.000100000
1.37800E+07 0.000100000
1.37850E+07 0.000100000
1.37867E+07 0.000100000
1.37870E+07 0.000100000
1.37900E+07 0.000100000
1.38000E+07 0.000100000
1.38100E+07 0.000100000
1.38200E+07 0.000100000
1.38300E+07 0.000100000
1.38400E+07 0.000100000
1.38500E+07 0.000100000
1.38600E+07 0.000100000
1.38700E+07 0.000100000
1.38800E+07 0.000100000
1.38900E+07 0.000100000
1.39000E+07 0.000100000
1.39500E+07 0.000100000
1.39790E+07 0.000100000
1.40000E+07 0.000100000
1.40500E+07 0.000100000
1.41000E+07 0.000100000
1.41500E+07 0.000100000
1.42000E+07 0.000100000
1.42500E+07 0.000100000
1.42980E+07 0.000100000
1.43000E+07 0.000100000
1.43500E+07 0.000100000
1.44000E+07 0.000100000
1.44500E+07 0.000100000
1.45000E+07 0.000100000
1.45500E+07 0.000100000
1.46000E+07 0.000100000
1.46170E+07 0.000100000
1.46500E+07 0.000100000
1.47000E+07 0.000100000
1.47500E+07 0.000100000
1.48000E+07 0.000100000
1.48500E+07 0.000100000
1.49000E+07 0.000100000
1.49360E+07 0.000100000
1.49500E+07 0.000100000
1.50000E+07 0.000100000
1.50200E+07 0.000100000
1.50400E+07 0.000100000
1.50500E+07 0.000100000
1.51000E+07 0.000100000
1.51500E+07 0.000100000
1.52000E+07 0.000100000
1.52500E+07 0.000100000
1.52550E+07 0.000100000
1.53000E+07 0.000100000
1.53472E+07 0.000100000
1.53500E+07 0.000100000
1.53921E+07 0.000100000
1.53921E+07 0.000100000
1.54000E+07 0.000100000
1.54500E+07 0.000100000
1.55000E+07 0.000100000
1.55500E+07 0.000100000
1.55740E+07 0.000100000
1.56000E+07 0.000100000
1.56500E+07 0.000100000
1.57000E+07 0.000100000
1.57500E+07 0.000100000
1.58000E+07 0.000100000
1.58500E+07 0.000100000
1.58930E+07 0.000100000
1.59000E+07 0.000100000
1.59500E+07 0.000100000
1.60000E+07 0.000100000
1.61000E+07 0.000100000
1.61300E+07 0.000100000
1.61610E+07 0.000100000
1.62000E+07 0.000100000
1.62050E+07 0.000100000
1.62120E+07 0.000100000
1.63000E+07 0.000100000
1.64000E+07 0.000100000
1.64100E+07 0.000100000
1.65000E+07 0.000100000
1.65310E+07 0.000100000
1.66000E+07 0.000100000
1.66150E+07 0.000100000
1.66516E+07 0.000100000
1.67000E+07 0.000100000
1.68000E+07 0.000100000
1.68200E+07 0.000100000
1.68500E+07 0.000100000
1.69000E+07 0.000100000
1.70000E+07 0.000100000
1.70250E+07 0.000100000
1.71000E+07 0.000100000
1.71680E+07 0.000100000
1.71690E+07 0.000100000
1.72000E+07 0.000100000
1.72300E+07 0.000100000
1.72502E+07 0.000100000
1.72502E+07 0.000100000
1.73000E+07 0.000100000
1.74000E+07 0.000100000
1.74350E+07 0.000100000
1.74870E+07 0.000100000
1.74880E+07 0.000100000
1.75000E+07 0.000100000
1.76000E+07 0.000100000
1.76400E+07 0.000100000
1.77000E+07 0.000100000
1.78000E+07 0.000100000
1.78060E+07 0.000100000
1.78070E+07 0.000100000
1.78450E+07 0.000100000
1.78500E+07 0.000100000
1.78507E+07 0.000100000
1.78507E+07 0.000100000
1.79000E+07 0.000100000
1.80000E+07 0.000100000
1.80500E+07 0.000100000
1.81000E+07 0.000100000
1.81250E+07 0.000100000
1.81338E+07 0.000100000
1.81338E+07 0.000100000
1.82000E+07 0.000100000
1.82550E+07 0.000100000
1.82890E+07 0.000100000
1.82890E+07 0.000100000
1.83000E+07 0.000100000
1.84000E+07 0.000100000
1.84440E+07 0.000100000
1.84600E+07 0.000100000
1.85000E+07 0.000100000
1.85718E+07 0.000100000
1.85718E+07 0.000100000
1.86000E+07 0.000100000
1.86650E+07 0.000100000
1.87000E+07 0.000100000
1.87630E+07 0.000100000
1.88000E+07 0.000100000
1.88700E+07 0.000100000
1.89000E+07 0.000100000
1.90000E+07 0.000100000
1.90750E+07 0.000100000
1.90820E+07 0.000100000
1.91000E+07 0.000100000
1.92000E+07 0.000100000
1.92800E+07 0.000100000
1.93000E+07 0.000100000
1.93645E+07 0.000100000
1.93645E+07 0.000100000
1.94000E+07 0.000100000
1.94010E+07 0.000100000
1.94850E+07 0.000100000
1.95000E+07 0.000100000
1.95891E+07 0.000100000
1.95892E+07 0.000100000
1.96000E+07 0.000100000
1.96394E+07 0.000100000
1.96394E+07 0.000100000
1.96900E+07 0.000100000
1.97000E+07 0.000100000
1.97200E+07 0.000100000
1.98000E+07 0.000100000
1.98950E+07 0.000100000
1.99000E+07 0.000100000
2.00000E+07 0.000100000
2.01000E+07 0.000100000
2.01482E+07 0.000100000
2.01482E+07 0.000100000
2.02562E+07 0.000100000
2.02562E+07 0.000100000
2.02597E+07 0.000100000
2.02597E+07 0.000100000
2.03342E+07 0.000100000
2.03343E+07 0.000100000
2.03500E+07 0.000100000
2.04200E+07 0.000100000
2.05000E+07 0.000100000
2.06171E+07 0.000100000
2.06171E+07 0.000100000
2.06500E+07 0.000100000
2.08200E+07 0.000100000
2.08200E+07 0.000100000
2.09030E+07 0.000100000
2.09030E+07 0.000100000
2.09500E+07 0.000100000
2.09763E+07 0.000100000
2.09763E+07 0.000100000
2.09945E+07 0.000100000
2.09945E+07 0.000100000
2.10000E+07 0.000100000
2.10816E+07 0.000100000
2.10816E+07 0.000100000
2.12325E+07 0.000100000
2.12325E+07 0.000100000
2.12500E+07 0.000100000
2.14424E+07 0.000100000
2.14424E+07 0.000100000
2.15000E+07 0.000100000
2.15500E+07 0.000100000
2.15942E+07 0.000100000
2.15942E+07 0.000100000
2.16362E+07 0.000100000
2.16362E+07 0.000100000
2.17251E+07 0.000100000
2.17251E+07 0.000100000
2.18500E+07 0.000100000
2.18950E+07 0.000100000
2.18950E+07 0.000100000
2.19868E+07 0.000100000
2.19868E+07 0.000100000
2.20000E+07 0.000100000
2.20440E+07 0.000100000
2.20440E+07 0.000100000
2.21500E+07 0.000100000
2.21614E+07 0.000100000
2.22230E+07 0.000100000
2.22448E+07 0.000100000
2.22448E+07 0.000100000
2.24500E+07 0.000100000
2.25000E+07 0.000100000
2.27500E+07 0.000100000
2.28644E+07 0.000100000
2.28645E+07 0.000100000
2.30000E+07 0.000100000
2.30430E+07 0.000100000
2.30500E+07 0.000100000
2.32174E+07 0.000100000
2.33500E+07 0.000100000
2.35000E+07 0.000100000
2.36500E+07 0.000100000
2.37435E+07 0.000100000
2.37435E+07 0.000100000
2.38731E+07 0.000100000
2.39436E+07 0.000100000
2.39500E+07 0.000100000
2.40000E+07 0.000100000
2.42500E+07 0.000100000
2.43863E+07 0.000100000
2.44088E+07 0.000100000
2.44089E+07 0.000100000
2.45000E+07 0.000100000
2.45500E+07 0.000100000
2.45771E+07 0.000100000
2.45771E+07 0.000100000
2.48500E+07 0.000100000
2.50000E+07 0.000100000
2.51500E+07 0.000100000
2.54500E+07 0.000100000
2.55000E+07 0.000100000
2.57500E+07 0.000100000
2.60000E+07 0.000100000
2.60500E+07 0.000100000
2.63500E+07 0.000100000
2.65000E+07 0.000100000
2.66500E+07 0.000100000
2.69500E+07 0.000100000
2.70000E+07 0.000100000
2.72500E+07 0.000100000
2.75000E+07 0.000100000
2.75500E+07 0.000100000
2.78500E+07 0.000100000
2.80000E+07 0.000100000
2.81500E+07 0.000100000
2.84500E+07 0.000100000
2.85000E+07 0.000100000
2.87500E+07 0.000100000
2.90000E+07 0.000100000
2.90500E+07 0.000100000
2.93500E+07 0.000100000
2.95000E+07 0.000100000
2.96500E+07 0.000100000
2.99500E+07 0.000100000
3.00000E+07 0.000100000
3.00000E+07 0.00000
3.07079E+07 0.00000
3.10000E+07 0.00000
3.14223E+07 0.00000
3.20000E+07 0.00000
3.30000E+07 0.00000
3.32630E+07 0.00000
3.40000E+07 0.00000
3.41482E+07 0.00000
3.43888E+07 0.00000
3.50000E+07 0.00000
3.55351E+07 0.00000
3.60000E+07 0.00000
3.70000E+07 0.00000
3.80000E+07 0.00000
3.90000E+07 0.00000
3.91296E+07 0.00000
4.00000E+07 0.00000
4.10000E+07 0.00000
4.20000E+07 0.00000
4.30000E+07 0.00000
4.40000E+07 0.00000
4.50000E+07 0.00000
4.60000E+07 0.00000
4.70000E+07 0.00000
4.80000E+07 0.00000
4.90000E+07 0.00000
5.00000E+07 0.00000
5.10000E+07 0.00000
5.20000E+07 0.00000
5.30000E+07 0.00000
5.40000E+07 0.00000
5.50000E+07 0.00000
5.60000E+07 0.00000
5.70000E+07 0.00000
5.80000E+07 0.00000
5.90000E+07 0.00000
6.00000E+07 0.00000
6.10000E+07 0.00000
6.20000E+07 0.00000
6.30000E+07 0.00000
6.40000E+07 0.00000
6.50000E+07 0.00000
6.60000E+07 0.00000
6.70000E+07 0.00000
6.80000E+07 0.00000
6.90000E+07 0.00000
7.00000E+07 0.00000
7.10000E+07 0.00000
7.20000E+07 0.00000
7.30000E+07 0.00000
7.40000E+07 0.00000
7.50000E+07 0.00000
7.60000E+07 0.00000
7.70000E+07 0.00000
7.80000E+07 0.00000
7.90000E+07 0.00000
8.00000E+07 0.00000
8.10000E+07 0.00000
8.20000E+07 0.00000
8.30000E+07 0.00000
8.40000E+07 0.00000
8.50000E+07 0.00000
8.60000E+07 0.00000
8.70000E+07 0.00000
8.80000E+07 0.00000
8.90000E+07 0.00000
9.00000E+07 0.00000
9.10000E+07 0.00000
9.20000E+07 0.00000
9.30000E+07 0.00000
9.40000E+07 0.00000
9.50000E+07 0.00000
9.60000E+07 0.00000
9.70000E+07 0.00000
9.80000E+07 0.00000
9.90000E+07 0.00000
1.00000E+08 0.00000
1.02000E+08 0.00000
1.04000E+08 0.00000
1.06000E+08 0.00000
1.08000E+08 0.00000
1.10000E+08 0.00000
1.12000E+08 0.00000
1.14000E+08 0.00000
1.16000E+08 0.00000
1.18000E+08 0.00000
1.20000E+08 0.00000
1.22000E+08 0.00000
1.24000E+08 0.00000
1.26000E+08 0.00000
1.28000E+08 0.00000
1.30000E+08 0.00000
1.32000E+08 0.00000
1.34000E+08 0.00000
1.36000E+08 0.00000
1.38000E+08 0.00000
1.40000E+08 0.00000
1.42000E+08 0.00000
1.44000E+08 0.00000
1.46000E+08 0.00000
1.48000E+08 0.00000
1.50000E+08 0.00000