F-19(n,g) ENDF/B-VII.1
Energy(eV) XS(b)
1.00000E-05 0.481781
1.02420E-05 0.476062
1.04830E-05 0.470544
1.07250E-05 0.465214
1.09660E-05 0.460063
1.12080E-05 0.455080
1.14490E-05 0.450257
1.16910E-05 0.445585
1.19320E-05 0.441056
1.21730E-05 0.436664
1.24140E-05 0.432402
1.26550E-05 0.428263
1.31370E-05 0.420333
1.33780E-05 0.416531
1.36190E-05 0.412831
1.38600E-05 0.409229
1.41010E-05 0.405720
1.45820E-05 0.398968
1.50000E-05 0.393386
1.50630E-05 0.392544
1.55440E-05 0.386424
1.60250E-05 0.380584
1.65050E-05 0.375004
1.69860E-05 0.369665
1.74660E-05 0.364550
1.79450E-05 0.359644
1.84250E-05 0.354933
1.89040E-05 0.350405
1.93830E-05 0.346048
1.99530E-05 0.341083
2.00000E-05 0.340686
2.03410E-05 0.337806
2.08190E-05 0.333902
2.12970E-05 0.330133
2.17750E-05 0.326491
2.22530E-05 0.322967
2.27300E-05 0.319558
2.32070E-05 0.316255
2.36840E-05 0.313055
2.41610E-05 0.309951
2.46370E-05 0.306939
2.51190E-05 0.303985
2.55900E-05 0.301174
2.60650E-05 0.298413
2.65410E-05 0.295727
2.70160E-05 0.293114
2.74910E-05 0.290570
2.75000E-05 0.290523
2.79660E-05 0.288093
2.89150E-05 0.283326
2.98640E-05 0.278791
3.08110E-05 0.274471
3.17580E-05 0.270350
3.27030E-05 0.266413
3.36480E-05 0.262647
3.45910E-05 0.259039
3.50000E-05 0.257539
3.55340E-05 0.255580
3.64760E-05 0.252259
3.74170E-05 0.249067
3.83570E-05 0.245996
3.92960E-05 0.243039
4.02340E-05 0.240188
4.11720E-05 0.237439
4.21080E-05 0.234784
4.30430E-05 0.232218
4.39780E-05 0.229738
4.49120E-05 0.227337
4.58440E-05 0.225013
4.67760E-05 0.222761
4.77070E-05 0.220577
4.86370E-05 0.218458
5.00000E-05 0.215481
5.04940E-05 0.214402
5.14210E-05 0.212460
5.23480E-05 0.210572
5.32730E-05 0.208735
5.41980E-05 0.206947
5.51210E-05 0.205206
5.60440E-05 0.203510
5.78880E-05 0.200243
5.97280E-05 0.197134
6.15640E-05 0.194172
6.33970E-05 0.191344
6.52260E-05 0.188642
6.70520E-05 0.186056
6.88740E-05 0.183578
7.06930E-05 0.181202
7.25080E-05 0.178919
7.43190E-05 0.176725
7.50000E-05 0.175930
7.61270E-05 0.174614
7.79320E-05 0.172581
7.97330E-05 0.170621
8.15300E-05 0.168729
8.33240E-05 0.166903
8.51140E-05 0.165138
8.69010E-05 0.163432
8.86850E-05 0.161780
9.04650E-05 0.160181
9.22410E-05 0.158631
9.40140E-05 0.157128
9.57840E-05 0.155670
9.75500E-05 0.154254
0.000100000 0.152367
0.000101070 0.151543
0.000104580 0.148980
0.000106330 0.147749
0.000109820 0.145382
0.000113300 0.143134
0.000116760 0.140995
0.000120210 0.138957
0.000123650 0.137012
0.000127070 0.135154
0.000130480 0.133376
0.000133880 0.131673
0.000137260 0.130040
0.000140630 0.128473
0.000143990 0.126966
0.000147330 0.125517
0.000150000 0.124399
0.000150660 0.124122
0.000153980 0.122778
0.000158490 0.121022
0.000160580 0.120229
0.000163850 0.119020
0.000167120 0.117851
0.000170370 0.116721
0.000173620 0.115626
0.000176840 0.114566
0.000180060 0.113538
0.000183260 0.112542
0.000186450 0.111575
0.000189630 0.110636
0.000192800 0.109724
0.000199530 0.107858
0.000200000 0.107734
0.000205360 0.106315
0.000211570 0.104743
0.000217730 0.103251
0.000223840 0.101832
0.000229900 0.100480
0.000235920 0.0991900
0.000241890 0.0979590
0.000247810 0.0967810
0.000253690 0.0956530
0.000259520 0.0945730
0.000265300 0.0935360
0.000271040 0.0925400
0.000275000 0.0918751
0.000276740 0.0915830
0.000282390 0.0906620
0.000287990 0.0897760
0.000293560 0.0889210
0.000299080 0.0880970
0.000304550 0.0873010
0.000309980 0.0865330
0.000320720 0.0850710
0.000331340 0.0836980
0.000341790 0.0824090
0.000350000 0.0814403
0.000352070 0.0811960
0.000362190 0.0800530
0.000372160 0.0789740
0.000381970 0.0779530
0.000391630 0.0769860
0.000401130 0.0760690
0.000410490 0.0751970
0.000419700 0.0743670
0.000428770 0.0735760
0.000437690 0.0728220
0.000446480 0.0721020
0.000455130 0.0714140
0.000463640 0.0707550
0.000472020 0.0701240
0.000480270 0.0695190
0.000488390 0.0689390
0.000500000 0.0681396
0.000504380 0.0678380
0.000519870 0.0668190
0.000534870 0.0658760
0.000549410 0.0649980
0.000563490 0.0641810
0.000577130 0.0634180
0.000590340 0.0627040
0.000603150 0.0620350
0.000615550 0.0614070
0.000639200 0.0602600
0.000661400 0.0592400
0.000682560 0.0583150
0.000702400 0.0574850
0.000721000 0.0567390
0.000738440 0.0560650
0.000750000 0.0556337
0.000754790 0.0554550
0.000770110 0.0549000
0.000797950 0.0539340
0.000823210 0.0531000
0.000845310 0.0524010
0.000864640 0.0518120
0.000881560 0.0513130
0.000896370 0.0508870
0.000922280 0.0501670
0.000941710 0.0496470
0.000970850 0.0488960
0.00100000 0.0481780
0.00102370 0.0476160
0.00104740 0.0470740
0.00107110 0.0465510
0.00109480 0.0460450
0.00111840 0.0455560
0.00114200 0.0450830
0.00116560 0.0446240
0.00118920 0.0441800
0.00121270 0.0437490
0.00123630 0.0433310
0.00125980 0.0429250
0.00128320 0.0425300
0.00133010 0.0417740
0.00135350 0.0414110
0.00137690 0.0410580
0.00142360 0.0403790
0.00147030 0.0397330
0.00150000 0.0393408
0.00151680 0.0391190
0.00156320 0.0385330
0.00160960 0.0379740
0.00165590 0.0374400
0.00170210 0.0369290
0.00174810 0.0364390
0.00179410 0.0359680
0.00184010 0.0355170
0.00188590 0.0350830
0.00193160 0.0346650
0.00197730 0.0342630
0.00200000 0.0340694
0.00202280 0.0338750
0.00206830 0.0335000
0.00211360 0.0331390
0.00215890 0.0327890
0.00220410 0.0324510
0.00224920 0.0321240
0.00229430 0.0318070
0.00233920 0.0315010
0.00238400 0.0312030
0.00242880 0.0309140
0.00251800 0.0303610
0.00256250 0.0300960
0.00260690 0.0298390
0.00269550 0.0293450
0.00275000 0.0290555
0.00278380 0.0288760
0.00287180 0.0284300
0.00295940 0.0280060
0.00304660 0.0276020
0.00313360 0.0272160
0.00322020 0.0268480
0.00330640 0.0264960
0.00339230 0.0261580
0.00347790 0.0258340
0.00350000 0.0257533
0.00356310 0.0255230
0.00364800 0.0252240
0.00373260 0.0249370
0.00381690 0.0246600
0.00390080 0.0243930
0.00398440 0.0241360
0.00406760 0.0238880
0.00415060 0.0236480
0.00423320 0.0234160
0.00431550 0.0231920
0.00439750 0.0229750
0.00447910 0.0227640
0.00456040 0.0225600
0.00472220 0.0221710
0.00480250 0.0219840
0.00488260 0.0218030
0.00500000 0.0215476
0.00504210 0.0214560
0.00520040 0.0211270
0.00535740 0.0208150
0.00551320 0.0205190
0.00566780 0.0202370
0.00582120 0.0199680
0.00597330 0.0197120
0.00612430 0.0194680
0.00630960 0.0191810
0.00642280 0.0190100
0.00657030 0.0187960
0.00671660 0.0185900
0.00686180 0.0183920
0.00700580 0.0182020
0.00714870 0.0180190
0.00729060 0.0178430
0.00743130 0.0176730
0.00750000 0.0175928
0.00757090 0.0175100
0.00770940 0.0173520
0.00784680 0.0171990
0.00811840 0.0169090
0.00838690 0.0166360
0.00865120 0.0163800
0.00891130 0.0161390
0.00916740 0.0159120
0.00941940 0.0156980
0.00966760 0.0154950
0.00991180 0.0153030
0.0100000 0.0152362
0.0101520 0.0151210
0.0103890 0.0149470
0.0106220 0.0147830
0.0108510 0.0146250
0.0110770 0.0144760
0.0112990 0.0143330
0.0115180 0.0141960
0.0117330 0.0140650
0.0121540 0.0138190
0.0123590 0.0137040
0.0127640 0.0134850
0.0131560 0.0132830
0.0135350 0.0130950
0.0139030 0.0129210
0.0142590 0.0127590
0.0146040 0.0126070
0.0149380 0.0124650
0.0150000 0.0124396
0.0152620 0.0123320
0.0158800 0.0120900
0.0164590 0.0118750
0.0167350 0.0117770
0.0172710 0.0115930
0.0177730 0.0114280
0.0182430 0.0112800
0.0186840 0.0111460
0.0194850 0.0109140
0.0200000 0.0107736
0.0201890 0.0107220
0.0208280 0.0105570
0.0213870 0.0104180
0.0218760 0.0103010
0.0223040 0.0102010
0.0226790 0.0101170
0.0233340 0.00997370
0.0238260 0.00987030
0.0245630 0.00972100
0.0253000 0.00957830
0.0258840 0.00946980
0.0264630 0.00936560
0.0270370 0.00926550
0.0276070 0.00916940
0.0281730 0.00907690
0.0287340 0.00898780
0.0292910 0.00890200
0.0298430 0.00881920
0.0303910 0.00873930
0.0309350 0.00866220
0.0320100 0.00851550
0.0325410 0.00844570
0.0335950 0.00831210
0.0346330 0.00818670
0.0356540 0.00806860
0.0366590 0.00795720
0.0376490 0.00785190
0.0376500 0.00785180
0.0386230 0.00775220
0.0395820 0.00765770
0.0405260 0.00756800
0.0414560 0.00748270
0.0423700 0.00740150
0.0432710 0.00732410
0.0441570 0.00725020
0.0450300 0.00717960
0.0458890 0.00711210
0.0467340 0.00704750
0.0475670 0.00698560
0.0483860 0.00692620
0.0491920 0.00686920
0.0500000 0.00681410
0.0507800 0.00676090
0.0523180 0.00666080
0.0538080 0.00656790
0.0552520 0.00648160
0.0566500 0.00640110
0.0580050 0.00632590
0.0593170 0.00625550
0.0605880 0.00618950
0.0618200 0.00612760
0.0641690 0.00601440
0.0663730 0.00591360
0.0684750 0.00582220
0.0704450 0.00574020
0.0722930 0.00566640
0.0740240 0.00559970
0.0750000 0.00556340
0.0756480 0.00553930
0.0771700 0.00548440
0.0785970 0.00543440
0.0800060 0.00538630
0.0824430 0.00530610
0.0846370 0.00523690
0.0865580 0.00517850
0.0882380 0.00512890
0.0897080 0.00508670
0.0922810 0.00501530
0.0942110 0.00496370
0.0971050 0.00488910
0.100000 0.00481790
0.101758 0.00477610
0.103512 0.00473540
0.105263 0.00469590
0.108758 0.00461980
0.112240 0.00454760
0.115707 0.00447890
0.119162 0.00441360
0.122603 0.00435120
0.126030 0.00429160
0.129444 0.00423460
0.132844 0.00418010
0.136232 0.00412780
0.139606 0.00407760
0.142967 0.00402940
0.146315 0.00398310
0.149649 0.00393840
0.150000 0.00393386
0.152971 0.00389540
0.156280 0.00385400
0.159575 0.00381400
0.162858 0.00377530
0.166128 0.00373800
0.169386 0.00370190
0.172630 0.00366690
0.175862 0.00363310
0.179081 0.00360030
0.182288 0.00356850
0.185482 0.00353760
0.191833 0.00347860
0.198147 0.00342270
0.200000 0.00340708
0.204412 0.00336990
0.210627 0.00331980
0.216794 0.00327220
0.222913 0.00322700
0.228984 0.00318390
0.235008 0.00314290
0.240984 0.00310370
0.246914 0.00306620
0.252797 0.00303030
0.258635 0.00299590
0.264427 0.00296290
0.270173 0.00293120
0.275000 0.00290547
0.275875 0.00290080
0.281532 0.00287150
0.287145 0.00284330
0.292715 0.00281610
0.298240 0.00278990
0.303723 0.00276460
0.309162 0.00274020
0.319915 0.00269370
0.325228 0.00267160
0.335771 0.00262940
0.346150 0.00258970
0.350000 0.00257561
0.356366 0.00255230
0.366423 0.00251700
0.376323 0.00248370
0.386068 0.00245210
0.398107 0.00241480
0.405103 0.00239380
0.414398 0.00236680
0.423548 0.00234110
0.432555 0.00231660
0.441422 0.00229320
0.450149 0.00227090
0.458741 0.00224950
0.467198 0.00222910
0.475523 0.00220950
0.483718 0.00219070
0.491785 0.00217270
0.500000 0.00215496
0.507667 0.00213840
0.523052 0.00210670
0.537957 0.00207730
0.552396 0.00205000
0.566383 0.00202450
0.579934 0.00200070
0.593061 0.00197850
0.605778 0.00195760
0.618097 0.00193800
0.630957 0.00191820
0.641593 0.00190220
0.652793 0.00188580
0.663644 0.00187030
0.684666 0.00184140
0.704374 0.00181540
0.722851 0.00179210
0.740173 0.00177100
0.750000 0.00175944
0.756412 0.00175190
0.771636 0.00173450
0.799290 0.00170430
0.824378 0.00167810
0.846331 0.00165620
0.865540 0.00163770
0.897054 0.00160870
0.922790 0.00158610
0.942093 0.00156980
0.971046 0.00154620
1.00000 0.00152370
1.02734 0.00150330
1.05447 0.00148380
1.08139 0.00146520
1.10810 0.00144750
1.13460 0.00143050
1.16089 0.00141420
1.18698 0.00139860
1.21286 0.00138360
1.23854 0.00136920
1.26402 0.00135530
1.28930 0.00134190
1.31439 0.00132910
1.33927 0.00131670
1.36397 0.00130470
1.41278 0.00128200
1.46083 0.00126070
1.50000 0.00124420
1.50831 0.00124070
1.55506 0.00122200
1.60107 0.00120430
1.64637 0.00118760
1.69096 0.00117190
1.73485 0.00115690
1.77805 0.00114280
1.82058 0.00112940
1.86245 0.00111660
1.90366 0.00110450
1.94423 0.00109290
1.99526 0.00107880
2.00000 0.00107755
2.06217 0.00106120
2.10026 0.00105150
2.17467 0.00103340
2.21100 0.00102490
2.28253 0.00100870
2.35183 0.000993730
2.41896 0.000979850
2.48399 0.000966940
2.54699 0.000954910
2.60802 0.000943680
2.66715 0.000933160
2.72442 0.000923310
2.75000 0.000919041
2.77991 0.000914050
2.83366 0.000905340
2.88574 0.000897140
2.93618 0.000889400
2.98505 0.000882090
3.07973 0.000868430
3.16850 0.000856190
3.25172 0.000845170
3.32974 0.000835210
3.40288 0.000826190
3.47145 0.000817990
3.50000 0.000814677
3.53573 0.000810530
3.59600 0.000803710
3.70900 0.000791380
3.80788 0.000781040
3.89439 0.000772320
3.98107 0.000763880
4.03633 0.000758620
4.15225 0.000747960
4.23919 0.000740260
4.36959 0.000729130
4.50000 0.000718490
4.58594 0.000711740
4.67053 0.000705270
4.75381 0.000699070
4.83578 0.000693130
4.91647 0.000687430
5.00000 0.000681735
5.07533 0.000676600
5.22922 0.000666580
5.37831 0.000657290
5.52274 0.000648650
5.66516 0.000640450
5.79819 0.000633070
5.92950 0.000626030
6.05670 0.000619430
6.17993 0.000613230
6.29931 0.000607400
6.41496 0.000601910
6.52699 0.000596730
6.63552 0.000591830
6.84580 0.000582680
7.04294 0.000574480
7.22775 0.000567100
7.40102 0.000560430
7.50000 0.000556750
7.56346 0.000554390
7.71574 0.000548890
7.85851 0.000543890
7.99235 0.000539320
8.24331 0.000531060
8.46289 0.000524130
8.65503 0.000518290
8.82315 0.000513340
8.97026 0.000509120
9.22769 0.000501970
9.42077 0.000496810
9.71039 0.000489350
10.0000 0.000482220
10.2188 0.000477050
10.4341 0.000472120
10.6461 0.000467410
10.8547 0.000462900
11.0601 0.000458600
11.2623 0.000454480
11.4613 0.000450520
11.6572 0.000446730
12.0429 0.000439540
12.4166 0.000432900
12.7786 0.000426740
13.1293 0.000421020
13.4690 0.000415690
13.7981 0.000410720
14.1169 0.000406070
14.4257 0.000401710
14.7249 0.000397620
15.0000 0.000393966
15.0148 0.000393770
15.2956 0.000390150
15.5676 0.000386740
15.8311 0.000383520
16.3416 0.000377500
16.8203 0.000372100
17.2690 0.000367250
17.6897 0.000362870
18.0841 0.000358900
18.4538 0.000355300
18.8005 0.000352020
19.1254 0.000349020
19.7348 0.000343610
20.0000 0.000341351
20.2679 0.000339070
20.7344 0.000335250
21.1426 0.000332010
21.4998 0.000329240
22.1249 0.000324570
22.5936 0.000321200
23.2968 0.000316330
24.0000 0.000311670
24.5938 0.000307930
25.1829 0.000304340
25.7674 0.000300900
26.3473 0.000297600
26.9227 0.000294440
27.4936 0.000291390
27.5000 0.000291357
28.0601 0.000288470
28.6221 0.000285650
29.1798 0.000282930
29.7331 0.000280310
30.2820 0.000277780
30.8267 0.000275340
31.3671 0.000272980
31.9033 0.000270700
32.9673 0.000266340
34.0147 0.000262250
35.0000 0.000258571
35.0457 0.000258400
36.0606 0.000254770
37.0597 0.000251350
38.0431 0.000248110
39.0112 0.000245040
39.9642 0.000242130
40.9022 0.000239370
41.8256 0.000236740
42.7346 0.000234230
43.6294 0.000231840
44.5102 0.000229560
45.3772 0.000227370
46.2307 0.000225290
47.0708 0.000223290
47.8978 0.000221370
48.7119 0.000219530
50.0000 0.000216725
50.3147 0.000216040
51.8673 0.000212810
53.3715 0.000209820
54.8286 0.000207040
56.2402 0.000204450
57.6077 0.000202030
58.9325 0.000199770
60.2159 0.000197650
61.4591 0.000195660
62.6635 0.000193790
63.8303 0.000192030
64.9606 0.000190370
66.0556 0.000188800
68.1771 0.000185870
70.1660 0.000183240
72.0306 0.000180880
73.7787 0.000178740
75.0000 0.000177302
75.4176 0.000176810
76.9540 0.000175050
78.3943 0.000173450
79.7447 0.000171990
82.2766 0.000169350
84.4920 0.000167140
86.4305 0.000165270
88.1267 0.000163690
89.6109 0.000162340
92.2082 0.000160060
94.1561 0.000158410
97.0781 0.000156030
100.000 0.000153760
103.313 0.000151330
106.418 0.000149150
109.329 0.000147200
112.059 0.000145440
114.618 0.000143840
117.017 0.000142390
121.374 0.000139870
125.327 0.000137700
128.786 0.000135880
131.813 0.000134350
134.461 0.000133050
136.779 0.000131940
140.834 0.000130070
143.876 0.000128720
148.438 0.000126770
150.000 0.000126133
153.000 0.000124910
156.309 0.000123690
159.604 0.000122520
162.887 0.000121380
166.157 0.000120280
169.414 0.000119210
172.659 0.000118180
175.891 0.000117180
179.110 0.000116210
182.316 0.000115270
188.704 0.000113460
195.043 0.000111760
200.000 0.000110483
201.331 0.000110140
207.571 0.000108610
213.762 0.000107160
219.904 0.000105780
225.999 0.000104460
232.046 0.000103200
238.045 0.000102000
243.998 0.000100850
249.904 9.97550E-05
255.765 9.87010E-05
261.579 9.76890E-05
267.348 9.67170E-05
273.072 9.57820E-05
275.000 9.54767E-05
278.751 9.48830E-05
284.386 9.40160E-05
289.976 9.31810E-05
295.523 9.23750E-05
301.027 9.15970E-05
306.488 9.08460E-05
311.906 9.01190E-05
322.657 8.87300E-05
333.241 8.74270E-05
343.659 8.62020E-05
350.000 8.54885E-05
353.914 8.50480E-05
364.009 8.39590E-05
373.947 8.29280E-05
383.729 8.19530E-05
393.358 8.10270E-05
402.837 8.01470E-05
412.168 7.93100E-05
421.352 7.85130E-05
430.394 7.77530E-05
439.294 7.70270E-05
448.055 7.63330E-05
456.679 7.56690E-05
465.168 7.50330E-05
473.525 7.44230E-05
489.978 7.32670E-05
500.000 7.25954E-05
505.916 7.21990E-05
521.356 7.12110E-05
536.314 7.02940E-05
550.804 6.94400E-05
564.841 6.86440E-05
578.440 6.78990E-05
591.614 6.72020E-05
604.376 6.65480E-05
616.739 6.59330E-05
628.716 6.53540E-05
640.319 6.48090E-05
662.799 6.37920E-05
683.874 6.28830E-05
703.632 6.20680E-05
722.155 6.13330E-05
739.520 6.06680E-05
750.000 6.02805E-05
755.800 6.00660E-05
771.062 5.95180E-05
785.371 5.90180E-05
812.200 5.81170E-05
835.675 5.73630E-05
856.216 5.67280E-05
874.189 5.61900E-05
889.915 5.57330E-05
917.436 5.49600E-05
938.077 5.44020E-05
969.039 5.35990E-05
1000.00 5.28320E-05
1033.25 5.21530E-05
1062.34 5.15840E-05
1087.80 5.11030E-05
1110.08 5.06960E-05
1149.06 5.00090E-05
1178.29 4.95150E-05
1222.15 4.88050E-05
1266.00 4.81290E-05
1311.88 4.75340E-05
1354.88 4.70010E-05
1395.20 4.65220E-05
1433.00 4.60890E-05
1468.44 4.56970E-05
1500.00 4.53588E-05
1501.66 4.53410E-05
1563.96 4.47010E-05
1618.46 4.41680E-05
1666.15 4.37220E-05
1707.88 4.33460E-05
1744.40 4.30260E-05
1808.30 4.24880E-05
1856.22 4.21010E-05
1928.11 4.15460E-05
2000.00 4.10170E-05
2062.50 4.06840E-05
2121.09 4.03830E-05
2176.03 4.01100E-05
2279.02 3.96210E-05
2369.15 3.92160E-05
2448.00 3.88770E-05
2517.00 3.85910E-05
2637.75 3.81150E-05
2728.31 3.77750E-05
2750.00 3.76979E-05
2864.16 3.72920E-05
3000.00 3.68360E-05
3125.00 3.65950E-05
3234.38 3.63920E-05
3425.78 3.60570E-05
3500.00 3.59340E-05
3569.34 3.58190E-05
3784.67 3.54830E-05
4000.00 3.51680E-05
4500.00 3.49600E-05
5000.00 3.47750E-05
5500.00 3.50050E-05
6000.00 3.52160E-05
6250.00 3.55040E-05
6625.00 3.59200E-05
7000.00 3.63170E-05
7250.00 3.67580E-05
7500.00 3.71867E-05
7625.00 3.74010E-05
8000.00 3.80240E-05
8392.00 3.88600E-05
9000.00 4.03520E-05
10000.0 4.33740E-05
11000.0 4.72140E-05
16009.0 8.96710E-05
19000.0 0.000167750
20000.0 0.000235980
21000.0 0.000304210
21902.0 0.000428270
23000.0 0.000713880
23359.0 0.000870130
24572.0 0.00203130
25000.0 0.00303510
25146.0 0.00354780
25556.0 0.00591130
25889.0 0.0100200
26208.0 0.0194970
26400.0 0.0330270
26436.0 0.0370270
26450.0 0.0387720
26500.0 0.0460670
26550.0 0.0554880
26600.0 0.0678750
26640.0 0.0807420
26650.0 0.0844780
26700.0 0.107154
26750.0 0.138599
26754.0 0.141597
26800.0 0.182401
26830.0 0.216155
26850.0 0.242036
26900.0 0.316491
26906.0 0.325910
26950.0 0.390089
26959.0 0.400658
27000.0 0.427313
27004.0 0.427651
27035.0 0.415958
27050.0 0.402143
27080.0 0.363533
27100.0 0.333348
27103.0 0.328704
27148.0 0.260779
27150.0 0.257953
27200.0 0.195541
27217.0 0.178054
27250.0 0.149059
27300.0 0.115504
27330.0 0.100042
27350.0 0.0912600
27400.0 0.0734990
27406.0 0.0717020
27450.0 0.0602480
27500.0 0.0501700
27505.0 0.0493000
27550.0 0.0423650
27600.0 0.0362170
27650.0 0.0312990
27679.0 0.0288880
27700.0 0.0273100
27750.0 0.0240340
27800.0 0.0213120
27998.0 0.0140740
28000.0 0.0140210
28316.0 0.00835280
28726.0 0.00502010
29302.0 0.00294870
29863.0 0.00199070
30000.0 0.00183280
30947.0 0.00114530
32000.0 0.000785520
32784.0 0.000634580
34000.0 0.000494950
35211.0 0.000417570
36000.0 0.000386920
37534.0 0.000357440
38000.0 0.000354980
40000.0 0.000377920
40030.0 0.000378720
41902.0 0.000469050
43420.0 0.000702480
43500.0 0.000926910
43580.0 0.0245170
43636.0 0.00103130
45057.0 0.00110910
45200.0 0.00117980
45500.0 0.00135610
45716.0 0.00151230
45800.0 0.00158110
46100.0 0.00187350
46300.0 0.00211930
46400.0 0.00226160
46700.0 0.00278910
46836.0 0.00309170
47000.0 0.00352610
47300.0 0.00458650
47408.0 0.00508050
47600.0 0.00615790
47814.0 0.00774950
47900.0 0.00853540
48135.0 0.0112070
48200.0 0.0120930
48500.0 0.0168780
48517.0 0.0171660
48731.0 0.0204920
48800.0 0.0212910
48862.0 0.0218220
49017.0 0.0221910
49100.0 0.0217950
49172.0 0.0211510
49327.0 0.0190640
49400.0 0.0178860
49542.0 0.0155080
49700.0 0.0130090
49709.0 0.0128760
49959.0 0.00965800
50000.0 0.00921870
50281.0 0.00678430
50300.0 0.00665130
50600.0 0.00494990
50650.0 0.00472700
50900.0 0.00380280
51091.0 0.00326460
51200.0 0.00300690
51500.0 0.00243790
51663.0 0.00219550
51800.0 0.00201970
52100.0 0.00170470
52485.0 0.00140350
53558.0 0.000908670
54000.0 0.000787130
54845.0 0.000624690
55803.0 0.000507630
57746.0 0.000378380
58000.0 0.000367650
60000.0 0.000310440
61718.0 0.000285960
62000.0 0.000283360
64000.0 0.000273320
64930.0 0.000272740
66000.0 0.000274720
68000.0 0.000285220
68282.0 0.000287380
70000.0 0.000304200
71296.0 0.000321230
72000.0 0.000332190
74000.0 0.000371070
74423.0 0.000381050
76000.0 0.000427160
77972.0 0.00666940
78000.0 0.00390140
79803.0 0.000574310
80000.0 0.000582960
82000.0 0.000699040
82550.0 0.000738980
84000.0 0.000863410
85872.0 0.00107590
86000.0 0.00109310
88000.0 0.00141730
88966.0 0.00161900
90000.0 0.00187490
92000.0 0.00250030
92061.0 0.00252210
93926.0 0.00323600
94000.0 0.00326510
96000.0 0.00395910
96020.0 0.00396440
97112.0 0.00416780
98000.0 0.00419160
98022.0 0.00419050
98932.0 0.00407500
99796.0 0.00385810
100000 0.00379520
100980 0.00345330
102000 0.00306570
103070 0.00266830
104000 0.00235150
105850 0.00182550
106000 0.00178900
108000 0.00137840
108400 0.00131140
110000 0.00108350
110630 0.00100860
112000 0.000869640
113450 0.000751290
114000 0.000712650
115840 0.000603230
116045 0.000592690
116250 0.000582395
116250 0.000582390
116250 0.000582386
119880 0.000440980
120000 0.000438930
121670 0.000388090
122640 0.000364210
125190 0.000312390
126400 0.000292110
130000 0.000243770
130050 0.000243200
134240 0.000203210
140000 0.000165700
141100 0.000160100
148500 0.000130970
150000 0.000126450
156570 0.000110510
165190 9.67500E-05
172900 0.000151800
173400 0.000889160
173500 0.00338470
173700 0.00293780
174100 0.000209920
183200 8.20010E-05
185860 8.08110E-05
190000 7.95190E-05
192590 7.89990E-05
197510 7.85640E-05
200000 7.86080E-05
200010 7.86087E-05
201100 7.86830E-05
207460 7.98150E-05
210000 8.06170E-05
210720 8.08840E-05
211590 8.12310E-05
218630 8.51280E-05
219340 8.56440E-05
220000 8.61470E-05
227030 9.31820E-05
228620 9.53040E-05
230000 9.73510E-05
235970 0.000109120
239060 0.000117860
239330 0.000118740
240000 0.000121030
243550 0.000135930
245300 0.000145520
250000 0.000183250
250170 0.000185070
250700 0.000191030
252000 0.000207630
252760 0.000218870
254000 0.000240180
254560 0.000251250
256000 0.000284820
258000 0.000347950
258500 0.000367740
259240 0.000400830
260000 0.000440340
261190 0.000516320
262000 0.000580460
262510 0.000627190
262850 0.000661470
264000 0.000799130
264310 0.000842800
265870 0.00111330
266000 0.00114000
267430 0.00148640
268000 0.00179740
268470 0.00227510
268500 0.00213340
269560 0.00196870
269580 0.00197190
270000 0.00203150
270260 0.00205940
270910 0.00209080
270940 0.00209090
271530 0.00206590
272000 0.00201310
273480 0.00171740
274000 0.00159200
276000 0.00114370
276060 0.00113219
276110 0.00112260
276600 0.00103340
278000 0.000823520
278350 0.000780470
280000 0.000620690
280110 0.000612500
281580 0.000571260
282000 0.000733590
282160 0.00103320
283720 0.000435410
284000 0.000413280
286000 0.000331740
286840 0.000309930
287110 0.000303690
288000 0.000285200
290000 0.000252670
290250 0.000249290
290680 0.000243780
292960 0.000219850
294730 0.000206060
295000 0.000204250
299220 0.000183810
300000 0.000181430
303810 0.000176990
304500 0.000178400
305000 0.000180380
307590 0.000255340
308730 0.00105560
309130 0.00860020
309260 0.0161720
309330 0.0116540
309410 0.00633420
309490 0.00364480
309540 0.00272100
309640 0.00168420
309740 0.00116030
310000 0.000603020
310130 0.000484380
311010 0.000242660
311970 0.000194870
315000 0.000168540
316440 0.000166420
317230 0.000165970
320000 0.000166520
323650 0.000170100
325000 0.000172000
329040 0.000179220
330000 0.000181270
335000 0.000193940
335920 0.000196650
339440 0.000208210
340000 0.000210220
343540 0.000224200
345000 0.000230620
348370 0.000247050
350000 0.000255860
354390 0.000282790
355000 0.000286930
360000 0.000325060
363160 0.000353440
365000 0.000371680
365740 0.000379400
367240 0.000395740
370000 0.000428460
370810 0.000438796
370960 0.000440710
375000 0.000498330
376210 0.000518210
378610 0.000565010
379230 0.000580090
379410 0.000584860
380000 0.000602230
381570 0.000673790
381730 0.000685180
382690 0.000795930
383000 0.000862240
383680 0.00116570
383730 0.00120530
384490 0.00311200
385050 0.0195060
385310 0.0185390
385760 0.00400880
385960 0.00265750
386000 0.00248540
386020 0.00240750
386180 0.00192980
386310 0.00167240
386570 0.00134820
387110 0.00103600
387540 0.000924180
388190 0.000839340
388360 0.000825810
388520 0.000815140
389000 0.000791920
389010 0.000791540
390700 0.000761250
392000 0.000758140
393820 0.000761740
395000 0.000765210
397620 0.000770690
398960 0.000771180
400000 0.000770260
404000 0.000756300
406340 0.000742060
407690 0.000732870
408000 0.000730760
411380 0.000712230
412000 0.000711070
412820 0.000711800
414850 0.000733830
416000 0.000771020
416760 0.000812550
416840 0.000817860
418230 0.000931750
419300 0.000988460
420000 0.000964600
420480 0.000922010
421150 0.000847360
421610 0.000796500
421910 0.000765830
422000 0.000757110
422390 0.000722040
423130 0.000667100
424000 0.000618430
424310 0.000604260
425770 0.000552560
426900 0.000523630
427760 0.000505520
428000 0.000500920
428590 0.000490280
430680 0.000458370
431740 0.000444620
432000 0.000441430
434230 0.000416550
436000 0.000399290
439180 0.000372440
440000 0.000366250
444000 0.000339700
445660 0.000330320
446090 0.000328040
448000 0.000318610
449040 0.000313950
452000 0.000302570
456000 0.000291740
460000 0.000286820
461060 0.000286690
461970 0.000287030
465590 0.000293270
470000 0.000315640
475000 0.000375870
475100 0.000377660
475340 0.000382100
480000 0.000570820
481580 0.000582400
484370 0.000734730
485000 0.000774340
486320 0.000856850
487000 0.000895970
487820 0.000936400
488170 0.000950550
489000 0.000974630
489920 0.000983210
490500 0.000978090
490940 0.000968860
492000 0.000929670
492750 0.000890320
494000 0.000811870
494060 0.000807841
494800 0.000758150
496000 0.000679240
496160 0.000669210
497330 0.000603490
497570 0.000593320
498050 0.000585660
498800 0.000899800
500000 0.000477640
501080 0.000425370
505000 0.000312740
505140 0.000309790
507710 0.000264250
509520 0.000239870
510000 0.000234230
511270 0.000220690
514010 0.000197070
517850 0.000173050
518400 0.000170250
520000 0.000162820
523950 0.000148190
528780 0.000135480
529510 0.000133940
530000 0.000132950
540000 0.000119710
541970 0.000118440
550000 0.000117590
556060 0.000122430
556470 0.000122970
560000 0.000129150
564080 0.000140510
569010 0.000163710
570000 0.000170210
575000 0.000218720
579580 0.000304950
580000 0.000316370
582990 0.000426650
584650 0.000520290
585000 0.000544330
587000 0.000721970
587320 0.000758360
588310 0.000889320
589000 0.00100000
590850 0.00140030
591000 0.00144060
592250 0.00182790
593000 0.00210260
593520 0.00230560
594930 0.00278370
595000 0.00279760
595470 0.00284990
596200 0.00280240
596900 0.00266440
597000 0.00264010
597180 0.00259400
597890 0.00238920
598590 0.00216400
599000 0.00202850
599300 0.00192990
600150 0.00166250
600560 0.00154310
601000 0.00142330
601970 0.00119160
603000 0.000991650
603800 0.000864890
604230 0.000805570
605000 0.000712570
606620 0.000561230
609120 0.000407580
610000 0.000368810
613240 0.000267820
617750 0.000191010
619580 0.000173960
620000 0.000171680
620280 0.000170770
621270 0.000175790
623940 0.000249540
626480 0.000125710
635350 8.85230E-05
640000 7.89670E-05
641110 7.71290E-05
648450 6.79420E-05
661270 5.96410E-05
667690 5.78460E-05
677770 5.77310E-05
680000 5.81550E-05
680280 5.82200E-05
685240 5.98740E-05
696490 6.79880E-05
700000 7.22370E-05
703970 7.84420E-05
710000 9.16710E-05
712160 9.78600E-05
720000 0.000129280
725350 0.000160840
730000 0.000194560
734830 0.000229870
735560 0.000234490
740000 0.000253170
743750 0.000252000
748430 0.000230000
750000 0.000219420
750770 0.000213950
753500 0.000194010
755310 0.000181050
758180 0.000161990
760000 0.000151180
766760 0.000120740
770000 0.000111340
773240 0.000105090
774170 0.000103870
774320 0.000103700
780000 0.000102550
784560 0.000110960
785090 0.000112640
790000 0.000137330
791870 0.000151400
797570 0.000196500
797720 0.000197230
800000 0.000201440
803030 0.000186230
806500 0.000153130
806930 0.000148900
810000 0.000121590
812350 0.000105160
820000 7.41810E-05
820980 7.19720E-05
825510 6.52130E-05
828170 6.35320E-05
830000 6.33120E-05
832830 6.46270E-05
833850 6.56730E-05
840000 8.22830E-05
841600 9.15950E-05
844380 0.000118450
847300 0.000177610
848920 0.000242340
850000 0.000312250
852570 0.000698610
854710 0.00168740
854770 0.00172750
856860 0.00220900
858030 0.00146740
858420 0.00124390
859390 0.000830920
860000 0.000657680
860370 0.000576060
861340 0.000420630
863100 0.000264280
863540 0.000239480
864660 0.000191240
866800 0.000135200
870000 9.29230E-05
870860 8.58240E-05
870900 8.55230E-05
878170 5.47250E-05
879870 5.12810E-05
880000 5.10500E-05
890000 4.12620E-05
894300 3.99570E-05
894370 3.99450E-05
897180 3.96820E-05
900000 3.98170E-05
910000 4.33350E-05
910100 4.33960E-05
920000 5.26790E-05
923360 5.86920E-05
923510 5.90470E-05
926760 7.15120E-05
930000 0.000108610
930770 0.000113450
935450 6.71600E-05
940000 6.10750E-05
941300 6.02490E-05
943660 5.86970E-05
949880 5.33710E-05
950000 5.32476E-05
955540 4.75510E-05
958460 4.45620E-05
960000 4.30400E-05
961970 4.11700E-05
967040 3.68130E-05
970000 3.45910E-05
977180 3.01180E-05
980000 2.86720E-05
980280 2.85370E-05
990000 2.46270E-05
997660 2.23760E-05
997890 2.23175E-05
998100 2.22640E-05
1.00000E+06 2.17960E-05
1.01000E+06 4.54010E-05
1.01620E+06 4.14650E-05
1.01710E+06 4.10222E-05
1.01910E+06 4.05952E-05
1.02000E+06 4.04031E-05
1.03000E+06 3.82681E-05
1.03660E+06 3.95488E-05
1.04000E+06 4.09629E-05
1.04780E+06 4.62378E-05
1.05000E+06 4.82469E-05
1.05630E+06 5.52563E-05
1.05810E+06 5.75887E-05
1.06000E+06 6.02001E-05
1.07000E+06 7.60981E-05
1.07290E+06 8.12126E-05
1.07560E+06 8.60859E-05
1.08000E+06 9.41144E-05
1.08880E+06 0.000109592
1.09000E+06 0.000111558
1.09650E+06 0.000121245
1.09830E+06 0.000123586
1.10000E+06 0.000125644
1.10440E+06 0.000130230
1.10860E+06 0.000133561
1.10970E+06 0.000134262
1.11000E+06 0.000134441
1.11160E+06 0.000135305
1.11310E+06 0.000135982
1.11690E+06 0.000137135
1.11800E+06 0.000137325
1.12000E+06 0.000137518
1.12220E+06 0.000137511
1.13000E+06 0.000135974
1.13130E+06 0.000135539
1.13220E+06 0.000135215
1.13270E+06 0.000135028
1.14000E+06 0.000131934
1.14310E+06 0.000130554
1.15000E+06 0.000127799
1.15020E+06 0.000127731
1.15290E+06 0.000126895
1.16000E+06 0.000125664
1.16630E+06 0.000126063
1.16920E+06 0.000126802
1.17000E+06 0.000127073
1.17980E+06 0.000132913
1.18000E+06 0.000133083
1.18850E+06 0.000142364
1.19000E+06 0.000144427
1.19120E+06 0.000146172
1.20000E+06 0.000161547
1.20300E+06 0.000167821
1.20870E+06 0.000181127
1.21000E+06 0.000184403
1.21310E+06 0.000192547
1.21660E+06 0.000202260
1.22000E+06 0.000212144
1.22460E+06 0.000226057
1.22480E+06 0.000226672
1.23000E+06 0.000242842
1.23140E+06 0.000247217
1.23450E+06 0.000256856
1.23750E+06 0.000266039
1.23800E+06 0.000267549
1.23980E+06 0.000272920
1.24000E+06 0.000273510
1.24700E+06 0.000293015
1.25000E+06 0.000300504
1.25110E+06 0.000303090
1.25630E+06 0.000313980
1.26000E+06 0.000320228
1.26480E+06 0.000326247
1.26580E+06 0.000327187
1.27000E+06 0.000329900
1.27180E+06 0.000330442
1.27350E+06 0.000330607
1.27430E+06 0.000330568
1.27500E+06 0.000330473
1.27620E+06 0.000330177
1.27750E+06 0.000329668
1.27780E+06 0.000329522
1.27900E+06 0.000328839
1.27940E+06 0.000328574
1.28000E+06 0.000328143
1.28140E+06 0.000326980
1.28330E+06 0.000325052
1.28490E+06 0.000323124
1.28760E+06 0.000319258
1.29000E+06 0.000315203
1.29200E+06 0.000311401
1.29250E+06 0.000310393
1.29490E+06 0.000305249
1.29800E+06 0.000297902
1.30000E+06 0.000292777
1.30110E+06 0.000289840
1.30880E+06 0.000267312
1.31000E+06 0.000263547
1.31770E+06 0.000238338
1.31850E+06 0.000235649
1.32000E+06 0.000230586
1.32130E+06 0.000226185
1.32910E+06 0.000199828
1.33000E+06 0.000196824
1.33300E+06 0.000186915
1.34000E+06 0.000164654
1.34670E+06 0.000144858
1.34870E+06 0.000139287
1.35000E+06 0.000135756
1.36000E+06 0.000111078
1.36860E+06 9.34928E-05
1.37000E+06 9.09468E-05
1.37920E+06 7.63288E-05
1.38000E+06 7.52244E-05
1.39000E+06 6.34778E-05
1.39290E+06 6.07331E-05
1.40000E+06 5.51207E-05
1.40950E+06 4.97449E-05
1.41000E+06 4.95208E-05
1.41200E+06 4.86775E-05
1.41650E+06 4.70708E-05
1.41700E+06 4.69156E-05
1.41750E+06 4.67755E-05
1.42000E+06 4.60747E-05
1.43000E+06 4.42519E-05
1.43200E+06 4.40424E-05
1.43400E+06 4.38772E-05
1.43600E+06 4.37537E-05
1.43800E+06 4.36692E-05
1.44000E+06 4.36213E-05
1.44200E+06 4.36079E-05
1.44370E+06 4.36220E-05
1.44400E+06 4.36268E-05
1.44600E+06 4.36761E-05
1.44800E+06 4.37540E-05
1.45000E+06 4.38589E-05
1.45200E+06 4.39893E-05
1.45400E+06 4.41440E-05
1.45600E+06 4.43216E-05
1.45800E+06 4.45212E-05
1.46000E+06 4.47418E-05
1.46200E+06 4.49826E-05
1.46370E+06 4.52024E-05
1.46400E+06 4.52427E-05
1.46600E+06 4.55214E-05
1.46800E+06 4.58183E-05
1.47000E+06 4.61329E-05
1.47090E+06 4.62801E-05
1.47200E+06 4.64646E-05
1.47400E+06 4.68131E-05
1.47600E+06 4.71780E-05
1.47800E+06 4.75591E-05
1.48000E+06 4.79560E-05
1.48200E+06 4.83686E-05
1.48400E+06 4.87965E-05
1.48600E+06 4.92396E-05
1.48800E+06 4.96976E-05
1.48950E+06 5.00508E-05
1.49000E+06 5.01703E-05
1.49220E+06 5.07070E-05
1.49270E+06 5.08314E-05
1.49660E+06 5.18313E-05
1.50000E+06 5.27450E-05
1.50920E+06 5.53986E-05
1.52000E+06 5.87985E-05
1.52730E+06 6.12226E-05
1.53540E+06 6.39764E-05
1.53650E+06 6.43522E-05
1.54000E+06 6.55479E-05
1.54020E+06 6.56161E-05
1.55980E+06 7.20398E-05
1.56000E+06 7.21009E-05
1.56600E+06 7.38711E-05
1.58000E+06 7.74012E-05
1.58380E+06 7.81807E-05
1.59310E+06 7.97052E-05
1.60000E+06 8.04507E-05
1.60390E+06 8.07165E-05
1.62000E+06 8.05646E-05
1.62410E+06 8.02010E-05
1.62600E+06 7.99886E-05
1.63650E+06 7.83295E-05
1.63651E+06 7.83281E-05
1.63670E+06 7.82902E-05
1.64000E+06 7.76030E-05
1.64100E+06 7.73805E-05
1.64680E+06 7.59656E-05
1.65030E+06 7.50155E-05
1.65610E+06 7.32983E-05
1.66000E+06 7.20545E-05
1.66680E+06 6.97424E-05
1.67610E+06 6.63577E-05
1.68000E+06 6.48871E-05
1.68750E+06 6.20160E-05
1.68910E+06 6.14005E-05
1.69000E+06 6.10543E-05
1.70000E+06 5.72380E-05
1.70110E+06 5.68245E-05
1.72000E+06 5.01058E-05
1.73610E+06 4.52228E-05
1.74000E+06 4.41856E-05
1.75410E+06 4.09621E-05
1.76000E+06 3.98697E-05
1.78000E+06 3.73534E-05
1.78660E+06 3.69382E-05
1.80000E+06 3.67506E-05
1.82700E+06 3.91194E-05
1.83000E+06 3.97929E-05
1.85000E+06 4.42828E-05
1.85480E+06 4.53604E-05
1.87270E+06 5.11560E-05
1.88850E+06 5.70939E-05
1.90200E+06 6.24988E-05
1.92000E+06 6.96751E-05
1.92310E+06 7.09110E-05
1.92500E+06 7.16362E-05
1.92560E+06 7.18652E-05
1.93280E+06 7.45253E-05
1.95070E+06 8.03835E-05
1.97500E+06 8.58287E-05
1.97780E+06 8.64561E-05
1.98570E+06 8.74883E-05
1.99360E+06 8.81753E-05
2.00000E+06 8.84819E-05
2.00920E+06 8.84412E-05
2.03000E+06 8.83492E-05
2.03360E+06 8.83333E-05
2.03760E+06 8.83156E-05
2.07290E+06 8.81594E-05
2.08500E+06 8.81059E-05
2.11000E+06 8.79953E-05
2.11840E+06 8.79581E-05
2.15000E+06 8.78183E-05
2.16050E+06 8.77718E-05
2.18000E+06 8.76856E-05
2.18310E+06 8.76719E-05
2.19000E+06 8.76413E-05
2.20000E+06 8.75971E-05
2.21160E+06 8.75458E-05
2.22420E+06 8.74900E-05
2.23000E+06 8.74644E-05
2.23890E+06 8.74250E-05
2.24240E+06 8.74095E-05
2.24920E+06 8.73794E-05
2.26400E+06 8.73140E-05
2.26500E+06 8.73095E-05
2.27880E+06 8.72485E-05
2.29920E+06 8.71582E-05
2.30000E+06 8.71547E-05
2.31970E+06 8.70675E-05
2.32610E+06 8.70392E-05
2.33110E+06 8.70171E-05
2.34000E+06 8.69777E-05
2.34820E+06 8.69414E-05
2.37000E+06 8.68450E-05
2.38340E+06 8.67857E-05
2.40000E+06 8.67123E-05
2.41120E+06 8.66627E-05
2.42320E+06 8.66096E-05
2.46650E+06 8.64181E-05
2.48000E+06 8.63583E-05
2.49150E+06 8.63075E-05
2.50000E+06 8.62699E-05
2.52330E+06 8.61668E-05
2.53360E+06 8.61212E-05
2.54720E+06 8.60610E-05
2.55040E+06 8.60469E-05
2.58000E+06 8.59159E-05
2.60000E+06 8.58275E-05
2.60800E+06 8.57921E-05
2.64730E+06 8.56182E-05
2.66000E+06 8.55620E-05
2.68720E+06 8.54417E-05
2.70000E+06 8.53850E-05
2.77250E+06 8.50643E-05
2.78000E+06 8.50311E-05
2.80000E+06 8.49426E-05
2.80740E+06 8.49099E-05
2.83000E+06 8.48099E-05
2.84760E+06 8.47321E-05
2.92000E+06 8.44117E-05
2.92760E+06 8.43781E-05
2.97000E+06 8.41905E-05
2.99200E+06 8.40932E-05
2.99430E+06 8.40830E-05
3.00000E+06 8.40578E-05
3.00800E+06 8.40224E-05
3.02000E+06 8.39693E-05
3.04780E+06 8.38463E-05
3.06380E+06 8.37756E-05
3.08420E+06 8.36853E-05
3.09330E+06 8.36451E-05
3.10000E+06 8.36154E-05
3.12000E+06 8.35269E-05
3.12520E+06 8.35039E-05
3.17000E+06 8.33057E-05
3.17300E+06 8.32925E-05
3.20000E+06 8.31730E-05
3.20480E+06 8.31518E-05
3.20610E+06 8.31460E-05
3.23000E+06 8.30403E-05
3.23440E+06 8.30208E-05
3.25150E+06 8.29452E-05
3.27080E+06 8.28598E-05
3.28000E+06 8.28191E-05
3.30000E+06 8.27306E-05
3.33680E+06 8.25678E-05
3.34000E+06 8.25536E-05
3.35810E+06 8.24736E-05
3.35950E+06 8.24674E-05
3.38680E+06 8.23466E-05
3.40000E+06 8.22882E-05
3.41410E+06 8.22258E-05
3.42780E+06 8.21652E-05
3.44260E+06 8.20997E-05
3.46000E+06 8.20227E-05
3.46530E+06 8.19993E-05
3.48920E+06 8.18936E-05
3.50000E+06 8.18458E-05
3.50510E+06 8.18232E-05
3.52000E+06 8.17573E-05
3.52450E+06 8.17374E-05
3.54040E+06 8.16670E-05
3.58000E+06 8.14918E-05
3.58480E+06 8.14706E-05
3.60000E+06 8.14034E-05
3.60480E+06 8.13821E-05
3.61550E+06 8.13348E-05
3.64280E+06 8.12140E-05
3.66550E+06 8.11136E-05
3.70420E+06 8.09424E-05
3.74400E+06 8.07663E-05
3.77360E+06 8.06353E-05
3.80000E+06 8.05185E-05
3.80410E+06 8.05004E-05
3.83500E+06 8.03637E-05
3.85000E+06 8.02973E-05
3.86010E+06 8.02527E-05
3.89990E+06 8.00766E-05
3.91700E+06 8.00009E-05
3.95340E+06 7.98399E-05
3.99090E+06 7.96740E-05
4.00000E+06 7.96337E-05
4.01890E+06 7.95501E-05
4.02340E+06 7.95302E-05
4.08100E+06 7.92754E-05
4.11210E+06 7.91378E-05
4.11440E+06 7.91276E-05
4.11443E+06 7.91275E-05
4.13430E+06 7.90396E-05
4.15000E+06 7.89701E-05
4.19650E+06 7.87644E-05
4.20000E+06 7.87489E-05
4.21030E+06 7.87033E-05
4.21132E+06 7.86988E-05
4.21650E+06 7.86759E-05
4.22600E+06 7.86339E-05
4.23000E+06 7.86162E-05
4.24610E+06 7.85450E-05
4.25000E+06 7.85277E-05
4.25030E+06 7.85264E-05
4.25210E+06 7.85184E-05
4.26540E+06 7.84596E-05
4.29650E+06 7.83220E-05
4.30000E+06 7.83065E-05
4.31000E+06 7.82623E-05
4.34090E+06 7.81255E-05
4.35000E+06 7.80853E-05
4.40000E+06 7.78641E-05
4.40310E+06 7.78504E-05
4.43200E+06 7.77225E-05
4.50080E+06 7.74181E-05
4.55630E+06 7.71726E-05
4.60000E+06 7.69793E-05
4.61040E+06 7.69333E-05
4.61044E+06 7.69331E-05
4.66290E+06 7.67010E-05
4.68740E+06 7.65926E-05
4.70000E+06 7.65369E-05
4.74510E+06 7.63373E-05
4.79052E+06 7.61364E-05
4.79680E+06 7.61086E-05
4.79840E+06 7.61015E-05
4.79890E+06 7.60993E-05
4.80000E+06 7.60945E-05
4.80000E+06 7.60944E-05
4.85400E+06 7.58555E-05
4.89480E+06 7.56750E-05
4.90000E+06 7.56520E-05
4.90500E+06 7.56299E-05
4.93160E+06 7.55122E-05
4.93163E+06 7.55121E-05
4.94280E+06 7.54627E-05
4.97000E+06 7.53424E-05
4.97610E+06 7.53154E-05
5.00000E+06 7.52096E-05
5.00050E+06 7.52074E-05
5.03000E+06 7.50769E-05
5.04500E+06 7.50105E-05
5.10000E+06 7.47672E-05
5.12940E+06 7.46372E-05
5.13700E+06 7.46035E-05
5.17000E+06 7.44575E-05
5.20000E+06 7.43248E-05
5.21380E+06 7.42638E-05
5.25000E+06 7.41036E-05
5.30000E+06 7.38824E-05
5.30480E+06 7.38612E-05
5.37710E+06 7.35413E-05
5.40000E+06 7.34400E-05
5.42000E+06 7.33515E-05
5.44030E+06 7.32617E-05
5.50000E+06 7.29976E-05
5.56020E+06 7.27313E-05
5.59360E+06 7.25835E-05
5.60000E+06 7.25552E-05
5.62350E+06 7.24512E-05
5.65090E+06 7.23300E-05
5.69350E+06 7.21415E-05
5.70000E+06 7.21128E-05
5.71620E+06 7.20411E-05
5.71830E+06 7.20318E-05
5.73350E+06 7.19646E-05
5.75410E+06 7.18734E-05
5.79100E+06 7.17102E-05
5.80000E+06 7.16704E-05
5.81120E+06 7.16208E-05
5.83410E+06 7.15195E-05
5.83413E+06 7.15193E-05
5.86670E+06 7.13753E-05
5.87000E+06 7.13607E-05
5.90000E+06 7.12279E-05
5.90890E+06 7.11886E-05
5.91944E+06 7.11420E-05
5.92000E+06 7.11395E-05
5.92890E+06 7.11001E-05
5.93944E+06 7.10534E-05
5.96890E+06 7.09231E-05
5.98000E+06 7.08740E-05
6.00000E+06 7.07855E-05
6.05970E+06 7.05214E-05
6.07420E+06 7.04573E-05
6.09920E+06 7.03467E-05
6.10000E+06 7.03431E-05
6.16000E+06 7.00777E-05
6.19570E+06 6.99197E-05
6.20000E+06 6.99007E-05
6.25000E+06 6.96795E-05
6.25850E+06 6.96419E-05
6.27910E+06 6.95508E-05
6.30000E+06 6.94583E-05
6.40000E+06 6.90159E-05
6.49850E+06 6.85801E-05
6.50000E+06 6.85735E-05
6.55550E+06 6.83279E-05
6.59000E+06 6.81753E-05
6.61700E+06 6.80559E-05
6.70000E+06 6.76887E-05
6.72670E+06 6.75705E-05
6.75000E+06 6.74675E-05
6.80000E+06 6.72463E-05
6.81000E+06 6.72020E-05
6.85390E+06 6.70078E-05
6.97000E+06 6.64942E-05
6.99870E+06 6.63672E-05
7.00000E+06 6.63614E-05
7.10000E+06 6.59190E-05
7.11280E+06 6.58624E-05
7.18000E+06 6.55651E-05
7.20000E+06 6.54766E-05
7.22000E+06 6.53881E-05
7.25000E+06 6.52554E-05
7.26200E+06 6.52023E-05
7.28000E+06 6.51227E-05
7.35000E+06 6.48130E-05
7.35410E+06 6.47949E-05
7.40000E+06 6.45918E-05
7.50000E+06 6.41494E-05
7.52000E+06 6.40609E-05
7.57350E+06 6.38242E-05
7.60000E+06 6.37070E-05
7.67000E+06 6.33973E-05
7.67440E+06 6.33778E-05
7.70000E+06 6.32646E-05
7.75340E+06 6.30283E-05
7.83000E+06 6.26894E-05
7.84990E+06 6.26014E-05
7.90000E+06 6.23798E-05
7.95000E+06 6.21585E-05
7.95820E+06 6.21223E-05
8.00000E+06 6.19373E-05
8.13000E+06 6.13622E-05
8.14390E+06 6.13007E-05
8.30190E+06 6.06017E-05
8.33000E+06 6.04774E-05
8.40720E+06 6.01359E-05
8.41740E+06 6.00907E-05
8.50000E+06 5.97253E-05
8.63100E+06 5.91457E-05
8.66000E+06 5.90174E-05
8.70000E+06 5.88405E-05
8.70120E+06 5.88352E-05
8.72000E+06 5.87520E-05
8.86000E+06 5.81326E-05
9.00000E+06 5.75132E-05
9.05809E+06 5.72563E-05
9.11618E+06 5.69993E-05
9.17426E+06 5.67423E-05
9.23235E+06 5.64853E-05
9.29044E+06 5.62283E-05
9.34853E+06 5.59713E-05
9.40661E+06 5.57144E-05
9.46470E+06 5.54574E-05
9.50000E+06 5.53012E-05
9.60960E+06 5.48163E-05
9.71920E+06 5.43314E-05
9.85080E+06 5.37492E-05
9.95000E+06 5.33104E-05
9.98240E+06 5.31670E-05
1.00000E+07 5.30892E-05
1.01000E+07 5.26467E-05
1.02000E+07 5.22043E-05
1.03810E+07 5.14036E-05
1.05000E+07 5.08771E-05
1.08520E+07 4.93198E-05
1.09850E+07 4.87314E-05
1.10000E+07 4.86651E-05
1.15000E+07 4.64530E-05
1.19570E+07 4.44312E-05
1.20000E+07 4.42410E-05
1.25000E+07 4.20289E-05
1.28000E+07 4.07017E-05
1.30000E+07 3.98169E-05
1.35000E+07 3.76048E-05
1.36970E+07 3.67333E-05
1.40000E+07 3.53928E-05
1.41000E+07 3.49504E-05
1.45000E+07 3.31807E-05
1.48000E+07 3.18535E-05
1.50000E+07 3.09687E-05
1.55000E+07 2.87566E-05
1.56010E+07 2.83098E-05
1.59000E+07 2.69870E-05
1.60000E+07 2.65446E-05
1.70000E+07 2.21205E-05
1.72000E+07 2.12357E-05
1.79210E+07 1.80459E-05
1.80000E+07 1.76964E-05
1.90000E+07 1.32723E-05
2.00000E+07 8.84819E-06