Al-27(n,g) ENDF/B-VII.1
Energy(eV) XS(b)
1.00000E-05 11.7428
1.25000E-05 10.5030
1.50000E-05 9.58792
2.00000E-05 8.30339
2.75000E-05 7.08115
3.50000E-05 6.27677
4.25000E-05 5.69608
5.00000E-05 5.25152
6.25000E-05 4.69710
7.50000E-05 4.28785
0.000100000 3.71339
0.000125000 3.32135
0.000150000 3.03197
0.000200000 2.62576
0.000275000 2.23926
0.000350000 1.98489
0.000425000 1.80126
0.000500000 1.66068
0.000625000 1.48535
0.000750000 1.35594
0.00100000 1.17428
0.00125000 1.05030
0.00150000 0.958792
0.00200000 0.830338
0.00275000 0.708115
0.00350000 0.627676
0.00425000 0.569607
0.00500000 0.525152
0.00625000 0.469710
0.00750000 0.428784
0.0100000 0.371338
0.0125000 0.332134
0.0150000 0.303196
0.0200000 0.262575
0.0253000 0.233457
0.0314750 0.209307
0.0376500 0.191375
0.0500000 0.166066
0.0625000 0.148533
0.0750000 0.135591
0.100000 0.117425
0.125000 0.105027
0.150000 0.0958759
0.200000 0.0830300
0.275000 0.0708070
0.350000 0.0627627
0.500000 0.0525092
0.750000 0.0428711
1.00000 0.0371254
1.50000 0.0303093
2.00000 0.0262456
2.75000 0.0223785
3.50000 0.0198330
5.00000 0.0165878
7.50000 0.0135362
10.0000 0.0117160
15.0000 0.00955522
20.0000 0.00826572
27.5000 0.00703716
35.0000 0.00622734
50.0000 0.00519291
75.0000 0.00421700
100.000 0.00363264
150.000 0.00293560
200.000 0.00251728
275.000 0.00211675
350.000 0.00185169
500.000 0.00151250
750.000 0.00119410
1000.00 0.00100675
1500.00 0.000792055
2000.00 0.000672763
2750.00 0.000573182
3500.00 0.000527724
4250.00 0.000538765
4625.00 0.000592565
5000.00 0.000755538
5224.01 0.00102189
5336.01 0.00129296
5448.02 0.00179227
5504.02 0.00221521
5560.02 0.00286288
5616.02 0.00392618
5672.02 0.00585135
5700.02 0.00745954
5728.03 0.00989261
5756.03 0.0138259
5784.03 0.0207967
5798.03 0.0264993
5812.03 0.0349535
5826.03 0.0482523
5840.03 0.0709099
5854.03 0.114177
5861.03 0.152214
5868.03 0.212551
5875.03 0.316017
5882.03 0.513029
5885.53 0.683208
5889.03 0.943779
5892.53 1.35708
5896.03 2.01780
5900.36 3.22744
5904.68 4.02756
5909.01 3.21738
5913.33 2.01103
5917.32 1.28356
5921.31 0.857561
5925.30 0.603099
5929.29 0.443484
5937.28 0.265839
5945.26 0.175926
5953.24 0.124692
5961.22 0.0928913
5977.19 0.0572363
5993.15 0.0388025
6009.11 0.0280687
6025.08 0.0212783
6041.04 0.0167139
6072.97 0.0111499
6104.89 0.00801668
6136.82 0.00607944
6168.75 0.00479840
6232.60 0.00326213
6296.46 0.00241037
6424.16 0.00154631
6551.87 0.00113763
6679.58 0.000911744
6935.00 0.000682236
7445.83 0.000511393
7956.67 0.000447732
10000.0 0.000382298
15000.0 0.000409195
20000.0 0.000556105
22152.6 0.000686111
23229.0 0.000779762
23767.1 0.000837148
24036.2 0.000870133
24170.7 0.000892088
24238.0 0.000921405
24271.7 0.00100655
24280.1 0.00108917
24288.5 0.00131513
24292.7 0.00161697
24296.9 0.00241748
24299.0 0.00343884
24301.1 0.00597050
24302.1 0.00892803
24303.2 0.0153859
24303.7 0.0219488
24304.2 0.0335440
24304.5 0.0434005
24304.8 0.0572094
24305.0 0.0775883
24305.3 0.107606
24305.7 0.172141
24306.1 0.214907
24306.5 0.171243
24306.8 0.106911
24307.1 0.0761762
24307.4 0.0556375
24307.7 0.0419059
24307.9 0.0325083
24308.5 0.0210871
24309.0 0.0147956
24310.1 0.00856868
24311.2 0.00573281
24313.3 0.00331514
24315.5 0.00234310
24319.8 0.00158345
24324.1 0.00129857
24332.8 0.00108637
24341.4 0.00101017
24376.0 0.000938129
24445.1 0.000927768
24583.3 0.000941976
24859.7 0.000981432
25412.5 0.00107300
26518.1 0.00131101
27623.8 0.00165748
28729.4 0.00218782
29835.1 0.00305391
30387.9 0.00370456
30940.7 0.00459022
31493.5 0.00582728
32046.4 0.00759941
32599.2 0.0101858
33152.0 0.0139430
33990.0 0.0219303
34828.0 0.0268933
35665.5 0.0211713
36503.0 0.0131139
37346.6 0.00800672
38190.1 0.00518357
39033.7 0.00357309
39877.3 0.00259787
40720.8 0.00197276
41564.4 0.00155225
43251.5 0.00104491
44938.6 0.000766364
46625.8 0.000600094
50000.0 0.000426538
53849.8 0.000345227
57699.5 0.000321227
61549.3 0.000333301
65399.0 0.000379759
69248.8 0.000473818
73098.5 0.000653411
75023.4 0.000801578
76948.3 0.00101661
78873.1 0.00133537
80798.0 0.00180971
86268.0 0.00362423
88707.7 0.00323900
89927.6 0.00284843
90537.5 0.00292115
90690.0 0.00313448
90842.4 0.00368735
90918.7 0.00428972
90994.9 0.00543588
91071.2 0.00788198
91109.3 0.0101544
91147.4 0.0136821
91198.0 0.0205836
91248.5 0.0253753
91299.1 0.0208930
91349.6 0.0138818
91398.2 0.00948097
91446.7 0.00695153
91495.3 0.00546192
91543.8 0.00453446
91640.9 0.00350171
91738.0 0.00296953
91987.7 0.00235956
92237.4 0.00209261
92736.8 0.00180963
93735.7 0.00148541
95733.3 0.00108991
97730.9 0.000851935
98729.8 0.000778086
99229.2 0.000783715
99478.9 0.000928987
99603.7 0.00154869
99666.2 0.00391381
99697.4 0.0123484
99713.0 0.0391882
99720.8 0.108445
99724.7 0.236961
99726.6 0.395383
99728.6 0.724841
99731.7 1.44699
99733.2 1.15534
99734.8 0.722852
99736.9 0.381231
99738.9 0.223544
99743.1 0.100040
99751.4 0.0355506
99767.9 0.0111377
99801.1 0.00355811
99867.4 0.00144007
100000 0.000874272
100240 0.000722829
100480 0.000681791
100959 0.000643939
101918 0.000600828
102877 0.000573803
103356 0.000574645
103596 0.000619436
103716 0.000812858
103776 0.00156200
103806 0.00432755
103821 0.0137156
103828 0.0409321
103832 0.0994788
103834 0.189104
103835 0.409820
103838 0.818529
103839 0.652187
103840 0.408025
103842 0.188410
103843 0.102201
103847 0.0425011
103854 0.0144923
103869 0.00459638
103897 0.00163915
103955 0.000829073
104070 0.000616010
104301 0.000558357
104762 0.000538534
105685 0.000527384
107530 0.000529674
111220 0.000634426
113065 0.000784280
114910 0.00111411
115833 0.00143962
116755 0.00201425
117678 0.00313404
118139 0.00409541
118600 0.00549839
120010 0.0109004
120715 0.00903556
121420 0.00588819
122180 0.00372024
122940 0.00256854
123700 0.00194146
124460 0.00158185
125980 0.00123869
127500 0.00112394
129020 0.00111681
130540 0.00117504
132060 0.00128188
133580 0.00142898
135918 0.00171289
138255 0.00200611
140593 0.00218690
142930 0.00214554
144539 0.00200165
145344 0.00194389
145746 0.00203932
145947 0.00244281
145997 0.00275706
146048 0.00337407
146098 0.00478059
146123 0.00618502
146148 0.00852290
146205 0.0155523
146234 0.0130001
146263 0.00877709
146287 0.00645003
146310 0.00500015
146357 0.00349979
146404 0.00281390
146451 0.00245321
146639 0.00194422
147014 0.00172183
147765 0.00156843
149267 0.00136680
152270 0.00111140
154645 0.00113523
155833 0.00134699
157020 0.00192089
157875 0.00264917
158730 0.00304602
160450 0.00167234
161588 0.00107458
162725 0.000780504
163863 0.000619882
165000 0.000521456
167275 0.000408256
169550 0.000345589
174100 0.000282951
178650 0.000263983
183200 0.000279007
187750 0.000339207
192300 0.000485439
194575 0.000620081
196850 0.000821811
200205 0.00124950
203560 0.00174613
203658 0.00237561
203707 0.00473720
203731 0.0130843
203744 0.0389178
203750 0.102690
203753 0.216747
203756 0.600482
203759 1.14996
203761 0.553437
203764 0.198072
203768 0.0943401
203774 0.0360623
203787 0.0121905
203812 0.00449882
203863 0.00231010
203964 0.00172420
204167 0.00156624
204574 0.00150621
205386 0.00142669
207011 0.00121668
210260 0.000788723
212767 0.000563344
215275 0.000419739
217782 0.000333354
219036 0.000310568
219662 0.000312579
219976 0.000344969
220132 0.000474196
220211 0.000952409
220250 0.00258856
220270 0.00741071
220279 0.0183589
220284 0.0354209
220289 0.0818349
220294 0.164065
220300 0.0824701
220303 0.0446326
220307 0.0266373
220313 0.0120976
220327 0.00447940
220355 0.00155577
220410 0.000645859
220520 0.000392741
220740 0.000328886
221180 0.000324221
222059 0.000394524
222499 0.000496740
222719 0.000590894
222939 0.000744445
223159 0.00101590
223379 0.00155319
223489 0.00203599
223599 0.00280539
223709 0.00409525
223819 0.00631399
224055 0.0130620
224173 0.0109238
224291 0.00696843
224419 0.00418722
224546 0.00269840
224674 0.00187491
224801 0.00138678
225057 0.000871601
225312 0.000622729
225567 0.000484355
225822 0.000399408
226333 0.000304088
227353 0.000223078
228374 0.000187788
230416 0.000154180
232457 0.000136690
240624 0.000109920
248790 0.000118772
250831 0.000130835
252873 0.000157694
253894 0.000187560
254915 0.000255021
255425 0.000329596
255935 0.000486551
256191 0.000639974
256446 0.000910044
256701 0.00143359
256829 0.00187904
256956 0.00252016
257156 0.00392974
257356 0.00481572
257556 0.00384374
257756 0.00246434
257942 0.00163753
258128 0.00115929
258314 0.000878122
258500 0.000706807
258872 0.000533081
259244 0.000479312
259615 0.000519298
259801 0.000593492
259987 0.000743661
260173 0.00106867
260359 0.00192394
260452 0.00297737
260545 0.00543066
260592 0.00808737
260638 0.0133265
260661 0.0180347
260685 0.0254863
260708 0.0378935
260731 0.0589294
260756 0.0941474
260782 0.117595
260807 0.0941030
260833 0.0589054
260863 0.0336698
260893 0.0208153
260922 0.0139164
260952 0.00991469
261012 0.00574597
261071 0.00376979
261190 0.00202969
261309 0.00131163
261548 0.000739654
261786 0.000521548
262262 0.000357674
262739 0.000299924
263691 0.000265411
264644 0.000265567
266550 0.000319625
267026 0.000358044
267503 0.000444523
267741 0.000546920
267979 0.000794567
268098 0.00108401
268158 0.00133463
268217 0.00172595
268277 0.00238589
268336 0.00360740
268366 0.00463639
268396 0.00617233
268426 0.00853092
268455 0.0121483
268495 0.0192536
268535 0.0239773
268575 0.0192420
268615 0.0121612
268651 0.00796719
268687 0.00548300
268723 0.00398138
268758 0.00303142
268830 0.00196509
268902 0.00142331
268973 0.00111381
269045 0.000922412
269188 0.000709452
269475 0.000541603
269761 0.000483704
270908 0.000465060
273200 0.000590923
274973 0.000731493
276745 0.000877697
278518 0.000974626
280290 0.000966773
283835 0.000705356
287380 0.000445197
290329 0.000313457
293278 0.000235652
296226 0.000190952
299175 0.000168293
302124 0.000164227
305073 0.000183275
308021 0.000245284
309496 0.000307948
310970 0.000406516
313010 0.000605465
315050 0.000726177
319130 0.000384558
320750 0.000279438
322370 0.000212683
325611 0.000141566
328851 0.000108639
332092 9.20918E-05
338572 8.26347E-05
341813 9.29145E-05
343433 0.000131436
344243 0.000267540
344446 0.000396001
344648 0.000723569
344749 0.00112079
344851 0.00203315
344901 0.00300815
344952 0.00489377
345002 0.00913810
345028 0.0133395
345053 0.0202527
345083 0.0323626
345112 0.0403883
345141 0.0323123
345171 0.0202514
345200 0.0125104
345230 0.00816902
345288 0.00413617
345347 0.00246966
345406 0.00164627
345523 0.000898423
345641 0.000582382
345876 0.000326703
346111 0.000228508
347050 0.000128599
348930 0.000108917
352689 0.000130803
354569 0.000157074
356448 0.000204264
357388 0.000246288
358328 0.000325311
358797 0.000405928
359267 0.000583343
359502 0.000782422
359737 0.00122132
359972 0.00255021
360090 0.00448361
360148 0.00637794
360207 0.00949177
360344 0.0194613
360413 0.0162264
360482 0.0103583
360546 0.00672219
360609 0.00459586
360736 0.00254830
360989 0.00125834
361243 0.000882190
361497 0.000740352
362004 0.000671906
362511 0.000707893
363526 0.000929229
364540 0.00135025
365750 0.00216469
366850 0.00283894
367950 0.00272065
369160 0.00188683
370150 0.00127520
371268 0.000857059
372385 0.000637245
373503 0.000544476
374620 0.000579560
375345 0.000713003
376070 0.000923827
376800 0.000931422
377530 0.000687414
378489 0.000449437
379448 0.000340338
380407 0.000291591
381366 0.000274663
382325 0.000283435
383284 0.000328284
384243 0.000452534
384723 0.000581264
384962 0.000674513
385202 0.000791806
385490 0.000962702
385778 0.00114248
386354 0.00127511
386930 0.000974483
387505 0.000656171
388005 0.000485308
388505 0.000383284
389506 0.000281199
391506 0.000217181
395508 0.000212377
399509 0.000255417
403510 0.000336536
405190 0.000384086
410470 0.000582272
415750 0.000730606
417902 0.000748915
418978 0.000852516
419247 0.000953865
419516 0.00118430
419651 0.00141938
419785 0.00184509
419920 0.00269671
419987 0.00344171
420054 0.00453795
420155 0.00688613
420255 0.00845717
420356 0.00688966
420456 0.00453345
420547 0.00312547
420639 0.00229419
420730 0.00179316
420821 0.00147614
421004 0.00111862
421187 0.000933343
421552 0.000753744
421917 0.000667974
423378 0.000528261
426300 0.000398524
429510 0.000303970
436010 0.000189916
442510 0.000130445
449010 9.67538E-05
455510 7.68542E-05
466113 6.34675E-05
468763 6.52415E-05
471414 7.41168E-05
472739 8.63563E-05
474064 0.000115791
474727 0.000148157
475390 0.000213138
475721 0.000272717
476052 0.000370076
476384 0.000540112
476715 0.000853083
477352 0.00188157
477511 0.00188951
477671 0.00168843
477989 0.00110263
478332 0.000668264
478674 0.000436484
479017 0.000310267
479359 0.000236733
480044 0.000161143
480729 0.000126452
482099 9.97511E-05
483469 9.56193E-05
484839 0.000105739
486209 0.000137981
486894 0.000172252
487579 0.000234016
488264 0.000353874
488949 0.000590548
488973 0.000601545
489045 0.000635207
489116 0.000669995
489259 0.000741307
489545 0.000872573
489831 0.000942739
490117 0.000913701
490416 0.000797551
491285 0.000430460
491859 0.000305053
492363 0.000251082
492867 0.000237111
493371 0.000278226
493623 0.000341918
493875 0.000466121
494375 0.000821959
494626 0.000690478
494876 0.000468396
495196 0.000293952
495517 0.000208895
495837 0.000164200
496157 0.000138224
496798 0.000110696
497438 9.70531E-05
500000 7.99906E-05
503280 8.05652E-05
507418 9.42326E-05
511555 0.000124088
513624 0.000150543
515693 0.000193150
517761 0.000268424
519830 0.000411853
521240 0.000571422
523430 0.000842665
523620 0.000859927
524265 0.000910663
524910 0.000953333
526200 0.000970512
527030 0.000865889
528770 0.000532090
530074 0.000366670
531378 0.000269373
532681 0.000210259
533985 0.000172285
536593 0.000128693
539200 0.000106525
542500 9.52441E-05
544150 0.000102947
544975 0.000138770
545388 0.000246511
545594 0.000514696
545697 0.00101866
545749 0.00166636
545800 0.00308285
545837 0.00483812
545875 0.00601081
545912 0.00488217
545949 0.00319700
545982 0.00222539
546016 0.00169622
546083 0.00139358
546149 0.00199241
546183 0.00305537
546216 0.00553083
546240 0.00851542
546264 0.0100127
546312 0.00480562
546341 0.00281519
546370 0.00181065
546427 0.000944798
546541 0.000435463
546769 0.000211204
547225 0.000126791
548137 9.82273E-05
549962 9.13926E-05
553611 9.95474E-05
557261 0.000121009
560910 0.000160201
569530 0.000312764
573845 0.000292329
578160 0.000239039
581050 0.000260073
582495 0.000320182
583940 0.000464328
585086 0.000694157
585660 0.000876997
585946 0.00109476
586018 0.00123922
586090 0.00153785
586161 0.00235493
586197 0.00339683
586233 0.00565236
586240 0.00635087
586263 0.00890068
586286 0.0103701
586312 0.00846752
586339 0.00564578
586373 0.00346731
586407 0.00243601
586476 0.00161652
586545 0.00132097
586614 0.00118452
586889 0.00100842
587439 0.000873608
588540 0.000597817
589585 0.000406139
590630 0.000292714
591675 0.000227604
592197 0.000209346
592459 0.000215075
592589 0.000268524
592654 0.000486829
592687 0.00129698
592703 0.00402485
592712 0.0119411
592716 0.0293843
592720 0.120837
592722 0.242206
592724 0.121557
592729 0.0252484
592734 0.00994371
592743 0.00327598
592762 0.00106331
592799 0.000419285
592873 0.000243889
593021 0.000195331
593317 0.000177615
593910 0.000165772
595095 0.000162794
596280 0.000201472
596873 0.000268624
597169 0.000333697
597465 0.000436307
597852 0.000632709
598239 0.000757237
598626 0.000619042
599013 0.000421650
599497 0.000274302
599981 0.000202439
600465 0.000165220
600949 0.000144611
601918 0.000129973
602402 0.000149575
602644 0.000236416
602765 0.000517982
602825 0.00124822
602856 0.00261283
602871 0.00429762
602886 0.00779394
602898 0.0124138
602910 0.0155311
602922 0.0124772
602933 0.00784367
602952 0.00377501
602971 0.00212371
603009 0.000953556
603084 0.000393674
603235 0.000193410
603536 0.000132556
604138 0.000115541
605342 0.000113506
607750 0.000127087
609455 0.000143633
611160 0.000162094
614570 0.000176515
617980 0.000144709
621390 0.000111125
626578 9.20011E-05
631765 0.000104724
634359 0.000125646
636953 0.000163669
639546 0.000232543
642140 0.000357339
644720 0.000550812
647300 0.000685455
650175 0.000599667
651968 0.000601423
652470 0.000583404
653760 0.000449817
654144 0.000462972
654337 0.000569723
654433 0.000770681
654481 0.00100794
654529 0.00147609
654609 0.00260124
654650 0.00221462
654690 0.00158214
654724 0.00123754
654757 0.00104145
654824 0.000904527
654891 0.000975823
654958 0.00124869
655086 0.00202922
655215 0.00115678
655300 0.000747664
655385 0.000552157
655556 0.000389541
655897 0.000288216
656580 0.000224562
657945 0.000170470
660675 0.000117079
663405 8.87296E-05
666134 7.15803E-05
671594 5.31310E-05
677054 4.48420E-05
682514 4.19604E-05
687974 4.36168E-05
693434 5.26168E-05
696164 6.43096E-05
697529 7.82627E-05
698211 0.000105224
698552 0.000187059
698723 0.000452610
698808 0.00120116
698851 0.00279288
698894 0.0105775
698921 0.0196796
698948 0.00924328
698978 0.00357682
699007 0.00180561
699066 0.000741131
699183 0.000293598
699417 0.000147774
699886 0.000111453
700824 0.000117261
701762 0.000141105
702700 0.000183203
703449 0.000242934
704197 0.000359020
704571 0.000465394
704946 0.000642548
705320 0.000963885
705694 0.00158444
706342 0.00320084
706667 0.00270428
706991 0.00176989
707351 0.00110234
707710 0.000752319
708023 0.000581524
708335 0.000475430
708960 0.000358587
710210 0.000271682
711460 0.000268721
712085 0.000302848
712710 0.000387102
713077 0.000483663
713443 0.000650556
713810 0.000951935
714176 0.00149863
714540 0.00228216
714721 0.00256268
714903 0.00256848
715267 0.00189043
715631 0.00118258
715920 0.000828496
716210 0.000606819
716788 0.000370224
717367 0.000257747
717946 0.000196651
719103 0.000136753
720260 0.000111083
722490 0.000109544
723048 0.000126423
723605 0.000169024
724163 0.000298279
724441 0.000469210
724581 0.000617983
724720 0.000829578
724943 0.00123773
725055 0.00133817
725166 0.00127673
725612 0.000549516
725850 0.000355063
726088 0.000251442
726325 0.000192325
726563 0.000156063
727039 0.000116154
727514 9.59249E-05
728466 7.69118E-05
729417 6.84872E-05
733222 5.92241E-05
740831 6.37541E-05
748441 8.58343E-05
752245 0.000117038
754148 0.000149923
756050 0.000210634
759350 0.000351423
762650 0.000254762
762720 0.000253309
762936 0.000249486
763152 0.000246744
763584 0.000245092
764449 0.000267001
764881 0.000307749
765313 0.000416058
765529 0.000544752
765745 0.000826692
765853 0.00111018
765961 0.00162021
766069 0.00263875
766123 0.00352990
766177 0.00484511
766257 0.00763643
766337 0.00949000
766417 0.00762357
766498 0.00483661
766572 0.00315466
766645 0.00217192
766793 0.00121711
766941 0.000808463
767089 0.000602381
767385 0.000413820
767681 0.000335015
768272 0.000276284
768864 0.000261197
770047 0.000272764
771230 0.000313043
774590 0.000474431
777960 0.000442845
779814 0.000510181
780540 0.000565713
782104 0.000676026
784393 0.000642323
786110 0.000612066
786710 0.000595446
787953 0.000546768
789195 0.000486927
791680 0.000373310
795255 0.000260319
798830 0.000192817
805190 0.000135475
808363 0.000127668
811535 0.000135738
814708 0.000173343
816294 0.000215451
817880 0.000290668
818558 0.000343435
819236 0.000432165
819575 0.000517337
819914 0.000699632
820084 0.000899091
820254 0.00132036
820338 0.00173522
820423 0.00246984
820508 0.00390997
820593 0.00694130
820658 0.0108555
820723 0.0134041
820788 0.0107533
820853 0.00686817
820933 0.00400522
821013 0.00259195
821173 0.00142555
821332 0.000991415
821492 0.000788183
821811 0.000610185
822130 0.000533727
823193 0.000422722
824255 0.000345803
826380 0.000227725
828708 0.000154902
831035 0.000117519
833363 9.82033E-05
835690 8.91389E-05
840345 9.39875E-05
842673 0.000114162
843836 0.000134787
845000 0.000170301
845000 0.000725000
848000 0.000723541
849000 0.000723055
850000 0.000722569
850500 0.000722326
851000 0.000722082
851500 0.000721839
852000 0.000721596
853000 0.000721110
854000 0.000720624
855000 0.000720137
856000 0.000719651
857000 0.000719165
859000 0.000718192
859500 0.000717949
860000 0.000717706
861000 0.000717220
862000 0.000716734
863000 0.000716247
864000 0.000715761
864500 0.000715518
865000 0.000715275
866000 0.000714788
868000 0.000713816
870000 0.000712843
872000 0.000711871
874000 0.000710898
875000 0.000710412
875292 0.000710270
875293 0.000710270
876000 0.000709926
877000 0.000709439
878000 0.000708953
882000 0.000707008
885000 0.000705549
890000 0.000703118
895000 0.000700687
900000 0.000698255
905000 0.000696564
908000 0.000695549
910000 0.000694873
912000 0.000694196
914000 0.000693520
915000 0.000693182
915500 0.000693012
916000 0.000692843
916500 0.000692674
917000 0.000692505
918000 0.000692167
919000 0.000691829
920000 0.000691490
921000 0.000691152
922000 0.000690814
924000 0.000690137
925000 0.000689799
926000 0.000689461
927000 0.000689123
928000 0.000688784
929000 0.000688446
930000 0.000688108
930500 0.000687939
931000 0.000687770
931500 0.000687600
932000 0.000687431
933000 0.000687093
934000 0.000686755
936000 0.000686078
937000 0.000685740
938000 0.000685402
939000 0.000685063
940000 0.000684725
942000 0.000684049
944000 0.000683372
946000 0.000682696
950000 0.000681343
955000 0.000679651
964000 0.000676607
966000 0.000675931
968000 0.000675254
969000 0.000674916
969500 0.000674747
970000 0.000674578
970600 0.000674375
970800 0.000674307
971000 0.000674239
971200 0.000674172
971500 0.000674070
972000 0.000673901
972500 0.000673732
973000 0.000673563
974000 0.000673225
976000 0.000672548
979000 0.000671533
980000 0.000671195
981000 0.000670857
984000 0.000669842
986000 0.000669166
990000 0.000667813
995000 0.000666121
1.00000E+06 0.000664430
1.00500E+06 0.000663506
1.01000E+06 0.000662582
1.01600E+06 0.000661473
1.01800E+06 0.000661103
1.02000E+06 0.000660734
1.02400E+06 0.000659994
1.02500E+06 0.000659809
1.02600E+06 0.000659625
1.02650E+06 0.000659532
1.02800E+06 0.000659255
1.02900E+06 0.000659070
1.03200E+06 0.000658516
1.03400E+06 0.000658146
1.03600E+06 0.000657776
1.03800E+06 0.000657407
1.03900E+06 0.000657222
1.04000E+06 0.000657037
1.04200E+06 0.000656667
1.04300E+06 0.000656483
1.04400E+06 0.000656298
1.04500E+06 0.000656113
1.04800E+06 0.000655558
1.05000E+06 0.000655189
1.05237E+06 0.000654750
1.05238E+06 0.000654750
1.06000E+06 0.000653341
1.07500E+06 0.000650568
1.08000E+06 0.000649644
1.08200E+06 0.000649274
1.08400E+06 0.000648905
1.08600E+06 0.000648535
1.09000E+06 0.000647796
1.09200E+06 0.000647426
1.09400E+06 0.000647057
1.09800E+06 0.000646317
1.10000E+06 0.000645948
1.10200E+06 0.000645578
1.10400E+06 0.000645208
1.11000E+06 0.000644099
1.11500E+06 0.000643175
1.12000E+06 0.000642251
1.14000E+06 0.000638555
1.14500E+06 0.000637631
1.14700E+06 0.000637261
1.14800E+06 0.000637076
1.14850E+06 0.000636984
1.14900E+06 0.000636891
1.14950E+06 0.000636799
1.15000E+06 0.000636706
1.15020E+06 0.000636669
1.15040E+06 0.000636632
1.15060E+06 0.000636595
1.15100E+06 0.000636522
1.15150E+06 0.000636429
1.15200E+06 0.000636337
1.15300E+06 0.000636152
1.15400E+06 0.000635967
1.16200E+06 0.000634488
1.16400E+06 0.000634119
1.16600E+06 0.000633749
1.16800E+06 0.000633380
1.17200E+06 0.000632640
1.17400E+06 0.000632271
1.17600E+06 0.000631901
1.17800E+06 0.000631531
1.17900E+06 0.000631346
1.18000E+06 0.000631162
1.18100E+06 0.000630977
1.18200E+06 0.000630792
1.18400E+06 0.000630422
1.18600E+06 0.000630053
1.19100E+06 0.000629129
1.19200E+06 0.000628944
1.19300E+06 0.000628759
1.19500E+06 0.000628389
1.19600E+06 0.000628204
1.19700E+06 0.000628020
1.19800E+06 0.000627835
1.20000E+06 0.000627465
1.21000E+06 0.000625617
1.22500E+06 0.000622845
1.23000E+06 0.000621920
1.23500E+06 0.000620996
1.23800E+06 0.000620442
1.24000E+06 0.000620072
1.24400E+06 0.000619333
1.24800E+06 0.000618594
1.25000E+06 0.000618224
1.25100E+06 0.000618039
1.25200E+06 0.000617854
1.25300E+06 0.000617669
1.25400E+06 0.000617485
1.25500E+06 0.000617300
1.25600E+06 0.000617115
1.25700E+06 0.000616930
1.25800E+06 0.000616745
1.25900E+06 0.000616561
1.26200E+06 0.000616006
1.26300E+06 0.000615821
1.26400E+06 0.000615636
1.26600E+06 0.000615267
1.26800E+06 0.000614897
1.27000E+06 0.000614527
1.27500E+06 0.000613603
1.27800E+06 0.000613049
1.28000E+06 0.000612679
1.28300E+06 0.000612125
1.28400E+06 0.000611940
1.28500E+06 0.000611755
1.28600E+06 0.000611570
1.28700E+06 0.000611385
1.28800E+06 0.000611201
1.29000E+06 0.000610831
1.29100E+06 0.000610646
1.29200E+06 0.000610461
1.29500E+06 0.000609907
1.30000E+06 0.000608983
1.31000E+06 0.000607134
1.31400E+06 0.000606395
1.31600E+06 0.000606026
1.32000E+06 0.000605286
1.32200E+06 0.000604917
1.32500E+06 0.000604362
1.33000E+06 0.000603438
1.33500E+06 0.000602514
1.34000E+06 0.000601590
1.34100E+06 0.000601405
1.34200E+06 0.000601220
1.34350E+06 0.000600943
1.34400E+06 0.000600850
1.34450E+06 0.000600758
1.34600E+06 0.000600481
1.34700E+06 0.000600296
1.34800E+06 0.000600111
1.34900E+06 0.000599926
1.35000E+06 0.000599742
1.35100E+06 0.000599557
1.35200E+06 0.000599372
1.35300E+06 0.000599187
1.35500E+06 0.000598817
1.35600E+06 0.000598633
1.35700E+06 0.000598448
1.35800E+06 0.000598263
1.36000E+06 0.000597893
1.36200E+06 0.000597524
1.36400E+06 0.000597154
1.36600E+06 0.000596784
1.36800E+06 0.000596415
1.36900E+06 0.000596230
1.37100E+06 0.000595860
1.37400E+06 0.000595306
1.37500E+06 0.000595121
1.38000E+06 0.000594197
1.38100E+06 0.000594012
1.38700E+06 0.000592903
1.39000E+06 0.000592349
1.39500E+06 0.000591424
1.39600E+06 0.000591240
1.39700E+06 0.000591055
1.39800E+06 0.000590870
1.40000E+06 0.000590500
1.40100E+06 0.000590315
1.40300E+06 0.000589946
1.40600E+06 0.000589391
1.41000E+06 0.000588652
1.41400E+06 0.000587913
1.41800E+06 0.000587173
1.42200E+06 0.000586434
1.42400E+06 0.000586065
1.42600E+06 0.000585695
1.42700E+06 0.000585510
1.43000E+06 0.000584956
1.43400E+06 0.000584216
1.43600E+06 0.000583847
1.43800E+06 0.000583477
1.44000E+06 0.000583107
1.44200E+06 0.000582738
1.44400E+06 0.000582368
1.44600E+06 0.000581998
1.44800E+06 0.000581629
1.45000E+06 0.000581259
1.45100E+06 0.000581074
1.45300E+06 0.000580705
1.45400E+06 0.000580520
1.45600E+06 0.000580150
1.46000E+06 0.000579411
1.47000E+06 0.000577563
1.48000E+06 0.000575714
1.50000E+06 0.000572018
1.51000E+06 0.000570807
1.52000E+06 0.000569596
1.52500E+06 0.000568990
1.52800E+06 0.000568627
1.53000E+06 0.000568384
1.53200E+06 0.000568142
1.53800E+06 0.000567415
1.54000E+06 0.000567173
1.54200E+06 0.000566931
1.54400E+06 0.000566689
1.54800E+06 0.000566204
1.55000E+06 0.000565962
1.55200E+06 0.000565720
1.55400E+06 0.000565478
1.55600E+06 0.000565235
1.55850E+06 0.000564933
1.55900E+06 0.000564872
1.55940E+06 0.000564824
1.55980E+06 0.000564775
1.56000E+06 0.000564751
1.56020E+06 0.000564727
1.56060E+06 0.000564678
1.56100E+06 0.000564630
1.56150E+06 0.000564569
1.56200E+06 0.000564509
1.56400E+06 0.000564266
1.56600E+06 0.000564024
1.57500E+06 0.000562934
1.58000E+06 0.000562329
1.58500E+06 0.000561723
1.59100E+06 0.000560996
1.59500E+06 0.000560512
1.59800E+06 0.000560149
1.59900E+06 0.000560027
1.60000E+06 0.000559906
1.60100E+06 0.000559785
1.60200E+06 0.000559664
1.60300E+06 0.000559543
1.60400E+06 0.000559422
1.60500E+06 0.000559301
1.61000E+06 0.000558695
1.62000E+06 0.000557484
1.62400E+06 0.000557000
1.62500E+06 0.000556878
1.62700E+06 0.000556636
1.62800E+06 0.000556515
1.62900E+06 0.000556394
1.63000E+06 0.000556273
1.63100E+06 0.000556152
1.63200E+06 0.000556031
1.63400E+06 0.000555788
1.63600E+06 0.000555546
1.63700E+06 0.000555425
1.63800E+06 0.000555304
1.64000E+06 0.000555062
1.64200E+06 0.000554819
1.64400E+06 0.000554577
1.64800E+06 0.000554093
1.65000E+06 0.000553851
1.65400E+06 0.000553366
1.65800E+06 0.000552882
1.66400E+06 0.000552155
1.66600E+06 0.000551913
1.67000E+06 0.000551428
1.67400E+06 0.000550944
1.67600E+06 0.000550702
1.67800E+06 0.000550459
1.68200E+06 0.000549975
1.70000E+06 0.000547795
1.70800E+06 0.000546826
1.72400E+06 0.000544888
1.72800E+06 0.000544403
1.73000E+06 0.000544161
1.73150E+06 0.000543980
1.73350E+06 0.000543737
1.73400E+06 0.000543677
1.73450E+06 0.000543616
1.73500E+06 0.000543556
1.73550E+06 0.000543495
1.73650E+06 0.000543374
1.73900E+06 0.000543071
1.74300E+06 0.000542587
1.74400E+06 0.000542466
1.74500E+06 0.000542345
1.74800E+06 0.000541981
1.75000E+06 0.000541739
1.75200E+06 0.000541497
1.75400E+06 0.000541254
1.75800E+06 0.000540770
1.76200E+06 0.000540286
1.77600E+06 0.000538590
1.77800E+06 0.000538348
1.78200E+06 0.000537863
1.78400E+06 0.000537621
1.78600E+06 0.000537379
1.80000E+06 0.000535683
1.82800E+06 0.000532292
1.83850E+06 0.000531020
1.84250E+06 0.000530536
1.84600E+06 0.000530112
1.84700E+06 0.000529991
1.84800E+06 0.000529870
1.84900E+06 0.000529749
1.85050E+06 0.000529567
1.85300E+06 0.000529264
1.85450E+06 0.000529082
1.85550E+06 0.000528961
1.85650E+06 0.000528840
1.85750E+06 0.000528719
1.86100E+06 0.000528295
1.86400E+06 0.000527932
1.86600E+06 0.000527690
1.87400E+06 0.000526721
1.88000E+06 0.000525994
1.88600E+06 0.000525267
1.88800E+06 0.000525025
1.89000E+06 0.000524783
1.89200E+06 0.000524541
1.89600E+06 0.000524056
1.89691E+06 0.000523946
1.89691E+06 0.000523946
1.90000E+06 0.000523572
1.90200E+06 0.000523329
1.90400E+06 0.000523087
1.90800E+06 0.000522603
1.91000E+06 0.000522360
1.91400E+06 0.000521876
1.92000E+06 0.000521149
1.92400E+06 0.000520665
1.93000E+06 0.000519938
1.93200E+06 0.000519696
1.93800E+06 0.000518969
1.94600E+06 0.000518000
1.95000E+06 0.000517516
1.95200E+06 0.000517274
1.95400E+06 0.000517031
1.95600E+06 0.000516789
1.96000E+06 0.000516305
1.96200E+06 0.000516062
1.96800E+06 0.000515336
1.97200E+06 0.000514851
1.97400E+06 0.000514609
1.97600E+06 0.000514367
1.98000E+06 0.000513882
1.98200E+06 0.000513640
1.98400E+06 0.000513398
1.99000E+06 0.000512671
1.99200E+06 0.000512429
1.99400E+06 0.000512187
1.99600E+06 0.000511945
1.99800E+06 0.000511702
2.00000E+06 0.000511460
2.00200E+06 0.000511238
2.00400E+06 0.000511016
2.00600E+06 0.000510794
2.00800E+06 0.000510572
2.01000E+06 0.000510350
2.01200E+06 0.000510128
2.01600E+06 0.000509683
2.02400E+06 0.000508795
2.03000E+06 0.000508129
2.03400E+06 0.000507685
2.03600E+06 0.000507463
2.03800E+06 0.000507240
2.04000E+06 0.000507018
2.04200E+06 0.000506796
2.04550E+06 0.000506408
2.04750E+06 0.000506186
2.04850E+06 0.000506074
2.04950E+06 0.000505963
2.05000E+06 0.000505908
2.05450E+06 0.000505408
2.06050E+06 0.000504742
2.06150E+06 0.000504631
2.06250E+06 0.000504520
2.06350E+06 0.000504409
2.06500E+06 0.000504242
2.06850E+06 0.000503854
2.07150E+06 0.000503521
2.07600E+06 0.000503021
2.08400E+06 0.000502132
2.08600E+06 0.000501910
2.08800E+06 0.000501688
2.09200E+06 0.000501244
2.09800E+06 0.000500578
2.10000E+06 0.000500356
2.10400E+06 0.000499912
2.10600E+06 0.000499690
2.10800E+06 0.000499467
2.11200E+06 0.000499023
2.11600E+06 0.000498579
2.12200E+06 0.000497913
2.12800E+06 0.000497247
2.13600E+06 0.000496358
2.13800E+06 0.000496136
2.14000E+06 0.000495914
2.14200E+06 0.000495692
2.15000E+06 0.000494804
2.16000E+06 0.000493693
2.16400E+06 0.000493249
2.16600E+06 0.000493027
2.16800E+06 0.000492805
2.17200E+06 0.000492361
2.18200E+06 0.000491250
2.18400E+06 0.000491028
2.18800E+06 0.000490584
2.19200E+06 0.000490140
2.19400E+06 0.000489918
2.19600E+06 0.000489696
2.19800E+06 0.000489474
2.20000E+06 0.000489252
2.20400E+06 0.000488807
2.20600E+06 0.000488585
2.20800E+06 0.000488363
2.21000E+06 0.000488141
2.21400E+06 0.000487697
2.21600E+06 0.000487475
2.21800E+06 0.000487253
2.22400E+06 0.000486587
2.22800E+06 0.000486142
2.23200E+06 0.000485698
2.23600E+06 0.000485254
2.24000E+06 0.000484810
2.24600E+06 0.000484144
2.25000E+06 0.000483699
2.25400E+06 0.000483255
2.25800E+06 0.000482811
2.26600E+06 0.000481923
2.27600E+06 0.000480812
2.28000E+06 0.000480368
2.28800E+06 0.000479480
2.29376E+06 0.000478840
2.29376E+06 0.000478840
2.30000E+06 0.000478147
2.31000E+06 0.000477037
2.31200E+06 0.000476815
2.31600E+06 0.000476371
2.32200E+06 0.000475704
2.32600E+06 0.000475260
2.32800E+06 0.000475038
2.33000E+06 0.000474816
2.33200E+06 0.000474594
2.33600E+06 0.000474150
2.33800E+06 0.000473928
2.34000E+06 0.000473706
2.34400E+06 0.000473261
2.34600E+06 0.000473039
2.34800E+06 0.000472817
2.35000E+06 0.000472595
2.35200E+06 0.000472373
2.35400E+06 0.000472151
2.35600E+06 0.000471929
2.35800E+06 0.000471707
2.36200E+06 0.000471263
2.36400E+06 0.000471041
2.36600E+06 0.000470818
2.37400E+06 0.000469930
2.38000E+06 0.000469264
2.38400E+06 0.000468820
2.38800E+06 0.000468376
2.39200E+06 0.000467931
2.39800E+06 0.000467265
2.40000E+06 0.000467043
2.40200E+06 0.000466821
2.40600E+06 0.000466377
2.41200E+06 0.000465710
2.41600E+06 0.000465266
2.41800E+06 0.000465044
2.42000E+06 0.000464822
2.42200E+06 0.000464600
2.42400E+06 0.000464378
2.42600E+06 0.000464156
2.43200E+06 0.000463490
2.43400E+06 0.000463268
2.44600E+06 0.000461935
2.45000E+06 0.000461491
2.45400E+06 0.000461047
2.45800E+06 0.000460603
2.46400E+06 0.000459936
2.46800E+06 0.000459492
2.48200E+06 0.000457938
2.49000E+06 0.000457049
2.50000E+06 0.000455939
2.50200E+06 0.000455777
2.50600E+06 0.000455452
2.51000E+06 0.000455128
2.51600E+06 0.000454642
2.52000E+06 0.000454317
2.52600E+06 0.000453831
2.53000E+06 0.000453506
2.53400E+06 0.000453182
2.53600E+06 0.000453020
2.54000E+06 0.000452696
2.54600E+06 0.000452209
2.54800E+06 0.000452047
2.55000E+06 0.000451885
2.55200E+06 0.000451723
2.55400E+06 0.000451561
2.55600E+06 0.000451398
2.56200E+06 0.000450912
2.56400E+06 0.000450750
2.56600E+06 0.000450588
2.57000E+06 0.000450263
2.59000E+06 0.000448642
2.60000E+06 0.000447831
2.60500E+06 0.000447426
2.61000E+06 0.000447020
2.61500E+06 0.000446615
2.62000E+06 0.000446209
2.63000E+06 0.000445399
2.63500E+06 0.000444993
2.64000E+06 0.000444588
2.64500E+06 0.000444183
2.65000E+06 0.000443777
2.65500E+06 0.000443372
2.66000E+06 0.000442966
2.66500E+06 0.000442561
2.67000E+06 0.000442156
2.67500E+06 0.000441750
2.68000E+06 0.000441345
2.68500E+06 0.000440939
2.69500E+06 0.000440129
2.70000E+06 0.000439723
2.70500E+06 0.000439318
2.71500E+06 0.000438507
2.72500E+06 0.000437696
2.73500E+06 0.000436886
2.74000E+06 0.000436480
2.74500E+06 0.000436075
2.75000E+06 0.000435669
2.75500E+06 0.000435264
2.76500E+06 0.000434453
2.77000E+06 0.000434048
2.78000E+06 0.000433237
2.78500E+06 0.000432832
2.79000E+06 0.000432426
2.79500E+06 0.000432021
2.80000E+06 0.000431616
2.80500E+06 0.000431210
2.81000E+06 0.000430805
2.82500E+06 0.000429589
2.83704E+06 0.000428613
2.84500E+06 0.000427967
2.85000E+06 0.000427562
2.85500E+06 0.000427156
2.86000E+06 0.000426751
2.86500E+06 0.000426345
2.87000E+06 0.000425940
2.87500E+06 0.000425535
2.88000E+06 0.000425129
2.88500E+06 0.000424724
2.89000E+06 0.000424319
2.89500E+06 0.000423913
2.90000E+06 0.000423508
2.90500E+06 0.000423102
2.91000E+06 0.000422697
2.91500E+06 0.000422292
2.91838E+06 0.000422018
2.91838E+06 0.000422018
2.92000E+06 0.000421886
2.92500E+06 0.000421481
2.93000E+06 0.000421075
2.93500E+06 0.000420670
2.94000E+06 0.000420265
2.94500E+06 0.000419859
2.95000E+06 0.000419454
2.95500E+06 0.000419049
2.96500E+06 0.000418238
2.97000E+06 0.000417832
2.98000E+06 0.000417022
2.98500E+06 0.000416616
2.99500E+06 0.000415805
3.00000E+06 0.000415400
3.00500E+06 0.000415174
3.01000E+06 0.000414948
3.01500E+06 0.000414721
3.02000E+06 0.000414495
3.02500E+06 0.000414269
3.03000E+06 0.000414042
3.04500E+06 0.000413364
3.05000E+06 0.000413137
3.05500E+06 0.000412911
3.06000E+06 0.000412685
3.07000E+06 0.000412232
3.08500E+06 0.000411553
3.09254E+06 0.000411212
3.09255E+06 0.000411212
3.09500E+06 0.000411101
3.10000E+06 0.000410875
3.10500E+06 0.000410648
3.11000E+06 0.000410422
3.11630E+06 0.000410137
3.11630E+06 0.000410137
3.12000E+06 0.000409970
3.12500E+06 0.000409743
3.13000E+06 0.000409517
3.13500E+06 0.000409291
3.14000E+06 0.000409065
3.14500E+06 0.000408838
3.15000E+06 0.000408612
3.15500E+06 0.000408386
3.16000E+06 0.000408159
3.16500E+06 0.000407933
3.17000E+06 0.000407707
3.17500E+06 0.000407481
3.18500E+06 0.000407028
3.19000E+06 0.000406802
3.20000E+06 0.000406349
3.20500E+06 0.000406123
3.21000E+06 0.000405897
3.21500E+06 0.000405671
3.22500E+06 0.000405218
3.23000E+06 0.000404992
3.23500E+06 0.000404765
3.24500E+06 0.000404313
3.24735E+06 0.000404206
3.24735E+06 0.000404206
3.25000E+06 0.000404087
3.26000E+06 0.000403634
3.26500E+06 0.000403408
3.27000E+06 0.000403182
3.27500E+06 0.000402955
3.28000E+06 0.000402729
3.28500E+06 0.000402503
3.29000E+06 0.000402277
3.30000E+06 0.000401824
3.30500E+06 0.000401598
3.31000E+06 0.000401371
3.32000E+06 0.000400919
3.33000E+06 0.000400466
3.35000E+06 0.000399561
3.35500E+06 0.000399335
3.36000E+06 0.000399109
3.36500E+06 0.000398882
3.37000E+06 0.000398656
3.38000E+06 0.000398204
3.38500E+06 0.000397977
3.39000E+06 0.000397751
3.39500E+06 0.000397525
3.40000E+06 0.000397299
3.41000E+06 0.000396846
3.42000E+06 0.000396394
3.42500E+06 0.000396167
3.43500E+06 0.000395715
3.45000E+06 0.000395036
3.46000E+06 0.000394583
3.46500E+06 0.000394357
3.47000E+06 0.000394131
3.48500E+06 0.000393452
3.49000E+06 0.000393226
3.49500E+06 0.000393000
3.50000E+06 0.000392773
3.51000E+06 0.000392642
3.52000E+06 0.000392512
3.52500E+06 0.000392446
3.53000E+06 0.000392381
3.53500E+06 0.000392315
3.55500E+06 0.000392053
3.56000E+06 0.000391988
3.57500E+06 0.000391792
3.58000E+06 0.000391726
3.59000E+06 0.000391595
3.60000E+06 0.000391465
3.61000E+06 0.000391334
3.62000E+06 0.000391203
3.62500E+06 0.000391137
3.63000E+06 0.000391072
3.64000E+06 0.000390941
3.64500E+06 0.000390876
3.65000E+06 0.000390810
3.65838E+06 0.000390701
3.65839E+06 0.000390701
3.66000E+06 0.000390679
3.67000E+06 0.000390549
3.67500E+06 0.000390483
3.68000E+06 0.000390418
3.68500E+06 0.000390352
3.69500E+06 0.000390221
3.70000E+06 0.000390156
3.70500E+06 0.000390091
3.71000E+06 0.000390025
3.71500E+06 0.000389960
3.72000E+06 0.000389894
3.72500E+06 0.000389829
3.73500E+06 0.000389698
3.73730E+06 0.000389668
3.73730E+06 0.000389668
3.74000E+06 0.000389633
3.75000E+06 0.000389502
3.76500E+06 0.000389305
3.78000E+06 0.000389109
3.79500E+06 0.000388913
3.80000E+06 0.000388847
3.81000E+06 0.000388716
3.81768E+06 0.000388616
3.81768E+06 0.000388616
3.82500E+06 0.000388520
3.83170E+06 0.000388432
3.83170E+06 0.000388432
3.83500E+06 0.000388389
3.84500E+06 0.000388258
3.85000E+06 0.000388193
3.86000E+06 0.000388062
3.87500E+06 0.000387866
3.88000E+06 0.000387800
3.89000E+06 0.000387670
3.89500E+06 0.000387604
3.90000E+06 0.000387539
3.90943E+06 0.000387415
3.90943E+06 0.000387415
3.91000E+06 0.000387408
3.91500E+06 0.000387342
3.93000E+06 0.000387146
3.94500E+06 0.000386950
3.95000E+06 0.000386884
3.97000E+06 0.000386623
3.98000E+06 0.000386492
3.99000E+06 0.000386361
3.99500E+06 0.000386295
4.00000E+06 0.000386230
4.02000E+06 0.000386373
4.03000E+06 0.000386445
4.05000E+06 0.000386588
4.06500E+06 0.000386695
4.07500E+06 0.000386767
4.09000E+06 0.000386874
4.10000E+06 0.000386946
4.10472E+06 0.000386979
4.10472E+06 0.000386979
4.11000E+06 0.000387017
4.12000E+06 0.000387089
4.12500E+06 0.000387124
4.13000E+06 0.000387160
4.14000E+06 0.000387232
4.14500E+06 0.000387267
4.15000E+06 0.000387303
4.15500E+06 0.000387339
4.17000E+06 0.000387446
4.17500E+06 0.000387482
4.18500E+06 0.000387554
4.20000E+06 0.000387661
4.20586E+06 0.000387703
4.20587E+06 0.000387703
4.21500E+06 0.000387768
4.24000E+06 0.000387947
4.24500E+06 0.000387983
4.25000E+06 0.000388019
4.26000E+06 0.000388090
4.27500E+06 0.000388198
4.29000E+06 0.000388305
4.29500E+06 0.000388341
4.30000E+06 0.000388376
4.32000E+06 0.000388520
4.33000E+06 0.000388591
4.34500E+06 0.000388698
4.35000E+06 0.000388734
4.37500E+06 0.000388913
4.38000E+06 0.000388949
4.39000E+06 0.000389020
4.40000E+06 0.000389092
4.42000E+06 0.000389235
4.43000E+06 0.000389307
4.44000E+06 0.000389378
4.45000E+06 0.000389450
4.46500E+06 0.000389557
4.47000E+06 0.000389593
4.47500E+06 0.000389628
4.49500E+06 0.000389772
4.50000E+06 0.000389807
4.50500E+06 0.000389864
4.52000E+06 0.000390034
4.53000E+06 0.000390147
4.54500E+06 0.000390317
4.55000E+06 0.000390373
4.56000E+06 0.000390486
4.57000E+06 0.000390599
4.57507E+06 0.000390657
4.57507E+06 0.000390657
4.60000E+06 0.000390939
4.60500E+06 0.000390996
4.62000E+06 0.000391165
4.63500E+06 0.000391335
4.63890E+06 0.000391379
4.63890E+06 0.000391379
4.64212E+06 0.000391416
4.64212E+06 0.000391416
4.64419E+06 0.000391439
4.64419E+06 0.000391439
4.64500E+06 0.000391448
4.65000E+06 0.000391505
4.66000E+06 0.000391618
4.67891E+06 0.000391832
4.67891E+06 0.000391832
4.68000E+06 0.000391844
4.70000E+06 0.000392071
4.73000E+06 0.000392410
4.74000E+06 0.000392523
4.75000E+06 0.000392636
4.75122E+06 0.000392650
4.75122E+06 0.000392650
4.76000E+06 0.000392750
4.77000E+06 0.000392863
4.78000E+06 0.000392976
4.79000E+06 0.000393089
4.80000E+06 0.000393202
4.81644E+06 0.000393388
4.81644E+06 0.000393388
4.82000E+06 0.000393429
4.83000E+06 0.000393542
4.84000E+06 0.000393655
4.85000E+06 0.000393768
4.87000E+06 0.000393994
4.88000E+06 0.000394108
4.90000E+06 0.000394334
4.91000E+06 0.000394447
4.94000E+06 0.000394787
4.95000E+06 0.000394900
4.96000E+06 0.000395013
4.97000E+06 0.000395126
4.98000E+06 0.000395239
4.99000E+06 0.000395352
4.99158E+06 0.000395370
5.00000E+06 0.000395466
5.01000E+06 0.000395551
5.03000E+06 0.000395723
5.05000E+06 0.000395894
5.07000E+06 0.000396066
5.09000E+06 0.000396237
5.10000E+06 0.000396323
5.12255E+06 0.000396516
5.12255E+06 0.000396516
5.13000E+06 0.000396580
5.15000E+06 0.000396752
5.16247E+06 0.000396859
5.16247E+06 0.000396859
5.18000E+06 0.000397009
5.20000E+06 0.000397180
5.20328E+06 0.000397209
5.21000E+06 0.000397266
5.22000E+06 0.000397352
5.23000E+06 0.000397438
5.24000E+06 0.000397523
5.25000E+06 0.000397609
5.26000E+06 0.000397695
5.27000E+06 0.000397781
5.29000E+06 0.000397952
5.30000E+06 0.000398038
5.32000E+06 0.000398209
5.33000E+06 0.000398295
5.34906E+06 0.000398459
5.34906E+06 0.000398459
5.35000E+06 0.000398467
5.37000E+06 0.000398638
5.39000E+06 0.000398810
5.40000E+06 0.000398895
5.42000E+06 0.000399067
5.43000E+06 0.000399153
5.44000E+06 0.000399238
5.44440E+06 0.000399276
5.45192E+06 0.000399341
5.47000E+06 0.000399496
5.49000E+06 0.000399667
5.50000E+06 0.000399753
5.50213E+06 0.000399771
5.50213E+06 0.000399771
5.51000E+06 0.000399839
5.51810E+06 0.000399908
5.55000E+06 0.000400182
5.56000E+06 0.000400267
5.57000E+06 0.000400353
5.58000E+06 0.000400439
5.58916E+06 0.000400517
5.58916E+06 0.000400517
5.60000E+06 0.000400610
5.61000E+06 0.000400696
5.62252E+06 0.000400803
5.62252E+06 0.000400803
5.63590E+06 0.000400918
5.64171E+06 0.000400968
5.64171E+06 0.000400968
5.66000E+06 0.000401125
5.69000E+06 0.000401382
5.70000E+06 0.000401468
5.70540E+06 0.000401514
5.70540E+06 0.000401514
5.74000E+06 0.000401811
5.75000E+06 0.000401896
5.75821E+06 0.000401967
5.75821E+06 0.000401967
5.76000E+06 0.000401982
5.78000E+06 0.000402154
5.79788E+06 0.000402307
5.79789E+06 0.000402307
5.80000E+06 0.000402325
5.81000E+06 0.000402411
5.82434E+06 0.000402534
5.82434E+06 0.000402534
5.83000E+06 0.000402582
5.84000E+06 0.000402668
5.85000E+06 0.000402754
5.85471E+06 0.000402794
5.85471E+06 0.000402794
5.86000E+06 0.000402840
5.87885E+06 0.000403001
5.89000E+06 0.000403097
5.90000E+06 0.000403183
5.90565E+06 0.000403231
5.90565E+06 0.000403231
5.92000E+06 0.000403354
5.92611E+06 0.000403406
5.95000E+06 0.000403611
5.96630E+06 0.000403751
5.96631E+06 0.000403751
5.97000E+06 0.000403783
6.00000E+06 0.000404040
6.03000E+06 0.000404103
6.04463E+06 0.000404134
6.05000E+06 0.000404145
6.06000E+06 0.000404166
6.10000E+06 0.000404250
6.11000E+06 0.000404271
6.13000E+06 0.000404312
6.14000E+06 0.000404333
6.15000E+06 0.000404354
6.17000E+06 0.000404396
6.18000E+06 0.000404417
6.18239E+06 0.000404422
6.18239E+06 0.000404422
6.20000E+06 0.000404459
6.20184E+06 0.000404463
6.20184E+06 0.000404463
6.23000E+06 0.000404522
6.25000E+06 0.000404564
6.25960E+06 0.000404584
6.26000E+06 0.000404585
6.27362E+06 0.000404613
6.27362E+06 0.000404613
6.29000E+06 0.000404648
6.30000E+06 0.000404669
6.30729E+06 0.000404684
6.30729E+06 0.000404684
6.33647E+06 0.000404745
6.34402E+06 0.000404761
6.37000E+06 0.000404815
6.38945E+06 0.000404856
6.38945E+06 0.000404856
6.40000E+06 0.000404878
6.42000E+06 0.000404920
6.45000E+06 0.000404983
6.45953E+06 0.000405003
6.45953E+06 0.000405003
6.47000E+06 0.000405025
6.48000E+06 0.000405046
6.50000E+06 0.000405088
6.52000E+06 0.000405130
6.52203E+06 0.000405134
6.54000E+06 0.000405172
6.57000E+06 0.000405234
6.58441E+06 0.000405265
6.60000E+06 0.000405297
6.61000E+06 0.000405318
6.61991E+06 0.000405339
6.65000E+06 0.000405402
6.66000E+06 0.000405423
6.68000E+06 0.000405465
6.70000E+06 0.000405507
6.70565E+06 0.000405519
6.71945E+06 0.000405548
6.72000E+06 0.000405549
6.74531E+06 0.000405602
6.75000E+06 0.000405612
6.75524E+06 0.000405623
6.77723E+06 0.000405669
6.77723E+06 0.000405669
6.78836E+06 0.000405692
6.78836E+06 0.000405692
6.79000E+06 0.000405695
6.80000E+06 0.000405716
6.83000E+06 0.000405779
6.85000E+06 0.000405821
6.85156E+06 0.000405824
6.85223E+06 0.000405826
6.89000E+06 0.000405905
6.90000E+06 0.000405926
6.90016E+06 0.000405926
6.90016E+06 0.000405926
6.90467E+06 0.000405936
6.91000E+06 0.000405947
6.94000E+06 0.000406010
6.96000E+06 0.000406052
6.96396E+06 0.000406060
6.96396E+06 0.000406060
6.97063E+06 0.000406074
6.97063E+06 0.000406074
6.99000E+06 0.000406114
7.00000E+06 0.000406135
7.01150E+06 0.000406154
7.01150E+06 0.000406154
7.01790E+06 0.000406165
7.01790E+06 0.000406165
7.02869E+06 0.000406182
7.03000E+06 0.000406184
7.04000E+06 0.000406201
7.04055E+06 0.000406202
7.04055E+06 0.000406202
7.06669E+06 0.000406244
7.06669E+06 0.000406244
7.06894E+06 0.000406248
7.06894E+06 0.000406248
7.07000E+06 0.000406250
7.07496E+06 0.000406258
7.07496E+06 0.000406258
7.07584E+06 0.000406259
7.09000E+06 0.000406283
7.10000E+06 0.000406299
7.11287E+06 0.000406320
7.11287E+06 0.000406320
7.14000E+06 0.000406364
7.20000E+06 0.000406462
7.25000E+06 0.000406544
7.26000E+06 0.000406560
7.26225E+06 0.000406564
7.26226E+06 0.000406564
7.26226E+06 0.000406564
7.26226E+06 0.000406564
7.30000E+06 0.000406626
7.32000E+06 0.000406659
7.39000E+06 0.000406773
7.40000E+06 0.000406789
7.46000E+06 0.000406887
7.50000E+06 0.000406953
7.60000E+06 0.000407116
7.66000E+06 0.000407214
7.70000E+06 0.000407280
7.75000E+06 0.000407361
7.76000E+06 0.000407378
7.80000E+06 0.000407443
7.86000E+06 0.000407541
7.88000E+06 0.000407574
7.90000E+06 0.000407607
7.92000E+06 0.000407639
7.94000E+06 0.000407672
7.98000E+06 0.000407737
8.00000E+06 0.000407770
8.08000E+06 0.000407857
8.12000E+06 0.000407900
8.14992E+06 0.000407932
8.18000E+06 0.000407965
8.20000E+06 0.000407987
8.25000E+06 0.000408041
8.30000E+06 0.000408095
8.40000E+06 0.000408203
8.50000E+06 0.000408311
8.58137E+06 0.000408399
8.58137E+06 0.000408399
8.60000E+06 0.000408420
8.70000E+06 0.000408528
8.80000E+06 0.000408636
8.95000E+06 0.000408799
9.00000E+06 0.000408853
9.20000E+06 0.000413640
9.30000E+06 0.000416034
9.32183E+06 0.000416556
9.32183E+06 0.000416556
9.40000E+06 0.000418428
9.50000E+06 0.000420821
9.60000E+06 0.000423215
9.70000E+06 0.000425609
9.80000E+06 0.000428003
9.99607E+06 0.000432696
1.00000E+07 0.000432790
1.02000E+07 0.000442241
1.02500E+07 0.000444604
1.03500E+07 0.000449330
1.03614E+07 0.000449870
1.03614E+07 0.000449870
1.04000E+07 0.000451692
1.04670E+07 0.000454859
1.05000E+07 0.000456418
1.05500E+07 0.000458781
1.06000E+07 0.000461144
1.07535E+07 0.000468396
1.07535E+07 0.000468396
1.07675E+07 0.000469057
1.07675E+07 0.000469058
1.07860E+07 0.000469935
1.07860E+07 0.000469935
1.08000E+07 0.000470595
1.09000E+07 0.000475321
1.10000E+07 0.000480046
1.11500E+07 0.000487361
1.12000E+07 0.000489799
1.12500E+07 0.000492237
1.12887E+07 0.000494122
1.12898E+07 0.000494176
1.12898E+07 0.000494177
1.13500E+07 0.000497114
1.13571E+07 0.000497460
1.13571E+07 0.000497461
1.14000E+07 0.000499552
1.14317E+07 0.000501098
1.14317E+07 0.000501098
1.15000E+07 0.000504428
1.16000E+07 0.000509304
1.17622E+07 0.000517214
1.17622E+07 0.000517215
1.18000E+07 0.000519057
1.18967E+07 0.000523775
1.18968E+07 0.000523775
1.19522E+07 0.000526477
1.20000E+07 0.000528810
1.21764E+07 0.000537494
1.22000E+07 0.000538653
1.22028E+07 0.000538790
1.23010E+07 0.000543624
1.23010E+07 0.000543624
1.24000E+07 0.000548496
1.25000E+07 0.000553418
1.26000E+07 0.000558339
1.26278E+07 0.000559707
1.26278E+07 0.000559708
1.27635E+07 0.000566385
1.27635E+07 0.000566386
1.28000E+07 0.000568182
1.29618E+07 0.000576146
1.29618E+07 0.000576147
1.30000E+07 0.000578025
1.31421E+07 0.000585084
1.32000E+07 0.000587958
1.32697E+07 0.000591422
1.33279E+07 0.000594311
1.33279E+07 0.000594312
1.34000E+07 0.000597891
1.34084E+07 0.000598310
1.35000E+07 0.000602858
1.35450E+07 0.000605092
1.35463E+07 0.000605159
1.35464E+07 0.000605160
1.36000E+07 0.000607824
1.37500E+07 0.000615274
1.37833E+07 0.000616928
1.38000E+07 0.000617757
1.39494E+07 0.000625178
1.39494E+07 0.000625178
1.40000E+07 0.000627690
1.41298E+07 0.000632251
1.41298E+07 0.000632251
1.41953E+07 0.000634551
1.41954E+07 0.000634553
1.41956E+07 0.000634561
1.41956E+07 0.000634562
1.42000E+07 0.000634716
1.42500E+07 0.000636473
1.44000E+07 0.000641742
1.44801E+07 0.000644556
1.44801E+07 0.000644557
1.45000E+07 0.000645255
1.46000E+07 0.000648768
1.47500E+07 0.000654038
1.48000E+07 0.000655794
1.48223E+07 0.000656577
1.48223E+07 0.000656577
1.48311E+07 0.000656886
1.48311E+07 0.000656887
1.50000E+07 0.000662820
1.52000E+07 0.000665890
1.52500E+07 0.000666658
1.53437E+07 0.000668096
1.53437E+07 0.000668096
1.54000E+07 0.000668960
1.55000E+07 0.000670495
1.56000E+07 0.000672030
1.58000E+07 0.000675101
1.60000E+07 0.000678171
1.62000E+07 0.000679784
1.64000E+07 0.000681398
1.65000E+07 0.000682205
1.68000E+07 0.000684626
1.70000E+07 0.000686240
1.72000E+07 0.000681965
1.72821E+07 0.000680209
1.72822E+07 0.000680208
1.74000E+07 0.000677690
1.74279E+07 0.000677093
1.74280E+07 0.000677093
1.75000E+07 0.000675553
1.76000E+07 0.000673415
1.77810E+07 0.000669547
1.78000E+07 0.000669140
1.80000E+07 0.000664865
1.82000E+07 0.000651969
1.84000E+07 0.000639072
1.85000E+07 0.000632624
1.86000E+07 0.000626176
1.88000E+07 0.000613279
1.88945E+07 0.000607186
1.90000E+07 0.000600383
1.92000E+07 0.000587486
1.94000E+07 0.000574590
1.95000E+07 0.000568141
1.95899E+07 0.000562345
1.96000E+07 0.000561693
2.00000E+07 0.000535900
2.00000E+07 0.00000
2.09452E+07 0.00000
2.10000E+07 0.00000
2.13282E+07 0.00000
2.15394E+07 0.00000
2.20000E+07 0.00000
2.29082E+07 0.00000
2.30000E+07 0.00000
2.33497E+07 0.00000
2.40000E+07 0.00000
2.50000E+07 0.00000
2.53373E+07 0.00000
2.54920E+07 0.00000
2.55163E+07 0.00000
2.60000E+07 0.00000
2.70000E+07 0.00000
2.73136E+07 0.00000
2.80000E+07 0.00000
2.85532E+07 0.00000
2.90000E+07 0.00000
2.91676E+07 0.00000
3.00000E+07 0.00000
3.00414E+07 0.00000
3.10000E+07 0.00000
3.20000E+07 0.00000
3.20445E+07 0.00000
3.21504E+07 0.00000
3.30000E+07 0.00000
3.31217E+07 0.00000
3.33986E+07 0.00000
3.34659E+07 0.00000
3.37734E+07 0.00000
3.40000E+07 0.00000
3.48175E+07 0.00000
3.48303E+07 0.00000
3.50000E+07 0.00000
3.57643E+07 0.00000
3.60000E+07 0.00000
3.60437E+07 0.00000
3.67303E+07 0.00000
3.68945E+07 0.00000
3.70000E+07 0.00000
3.80000E+07 0.00000
3.90000E+07 0.00000
4.00000E+07 0.00000
4.08955E+07 0.00000
4.10000E+07 0.00000
4.16422E+07 0.00000
4.20000E+07 0.00000
4.29023E+07 0.00000
4.30000E+07 0.00000
4.38518E+07 0.00000
4.40000E+07 0.00000
4.46713E+07 0.00000
4.50000E+07 0.00000
4.60000E+07 0.00000
4.60540E+07 0.00000
4.62345E+07 0.00000
4.68100E+07 0.00000
4.70000E+07 0.00000
4.76784E+07 0.00000
4.80000E+07 0.00000
4.80189E+07 0.00000
4.85376E+07 0.00000
4.87769E+07 0.00000
4.90000E+07 0.00000
4.96833E+07 0.00000
4.97153E+07 0.00000
5.00000E+07 0.00000
5.10000E+07 0.00000
5.20000E+07 0.00000
5.25696E+07 0.00000
5.30000E+07 0.00000
5.40000E+07 0.00000
5.50000E+07 0.00000
5.53837E+07 0.00000
5.60000E+07 0.00000
5.70000E+07 0.00000
5.75286E+07 0.00000
5.80000E+07 0.00000
5.81285E+07 0.00000
5.90000E+07 0.00000
5.90699E+07 0.00000
6.00000E+07 0.00000
6.03172E+07 0.00000
6.10000E+07 0.00000
6.20000E+07 0.00000
6.30000E+07 0.00000
6.34321E+07 0.00000
6.40000E+07 0.00000
6.50000E+07 0.00000
6.60000E+07 0.00000
6.70000E+07 0.00000
6.80000E+07 0.00000
6.81426E+07 0.00000
6.84924E+07 0.00000
6.90000E+07 0.00000
7.00000E+07 0.00000
7.10000E+07 0.00000
7.20000E+07 0.00000
7.30000E+07 0.00000
7.39278E+07 0.00000
7.40000E+07 0.00000
7.50000E+07 0.00000
7.60000E+07 0.00000
7.70000E+07 0.00000
7.80000E+07 0.00000
7.90000E+07 0.00000
8.00000E+07 0.00000
8.10000E+07 0.00000
8.20000E+07 0.00000
8.30000E+07 0.00000
8.40000E+07 0.00000
8.50000E+07 0.00000
8.60000E+07 0.00000
8.70000E+07 0.00000
8.80000E+07 0.00000
8.90000E+07 0.00000
9.00000E+07 0.00000
9.10000E+07 0.00000
9.20000E+07 0.00000
9.30000E+07 0.00000
9.40000E+07 0.00000
9.50000E+07 0.00000
9.60000E+07 0.00000
9.70000E+07 0.00000
9.80000E+07 0.00000
9.90000E+07 0.00000
1.00000E+08 0.00000
1.02000E+08 0.00000
1.04000E+08 0.00000
1.06000E+08 0.00000
1.08000E+08 0.00000
1.10000E+08 0.00000
1.12000E+08 0.00000
1.14000E+08 0.00000
1.16000E+08 0.00000
1.18000E+08 0.00000
1.20000E+08 0.00000
1.22000E+08 0.00000
1.24000E+08 0.00000
1.26000E+08 0.00000
1.28000E+08 0.00000
1.30000E+08 0.00000
1.32000E+08 0.00000
1.34000E+08 0.00000
1.36000E+08 0.00000
1.38000E+08 0.00000
1.40000E+08 0.00000
1.42000E+08 0.00000
1.44000E+08 0.00000
1.46000E+08 0.00000
1.48000E+08 0.00000
1.50000E+08 0.00000