Cl-37(n,tot) ENDF/B-VII.1
Energy(eV) XS(b)
1.00000E-05 22.9129
1.25000E-05 20.6138
1.50000E-05 18.9166
2.00000E-05 16.5343
2.75000E-05 14.2675
3.50000E-05 12.7757
4.25000E-05 11.6987
5.00000E-05 10.8742
6.25000E-05 9.84602
7.50000E-05 9.08701
0.000100000 8.02161
0.000125000 7.29455
0.000150000 6.75785
0.000200000 6.00450
0.000275000 5.28769
0.000350000 4.81594
0.000425000 4.47537
0.000500000 4.21465
0.000625000 3.88950
0.000750000 3.64948
0.00100000 3.31258
0.00125000 3.08266
0.00150000 2.91294
0.00200000 2.67471
0.00275000 2.44804
0.00350000 2.29886
0.00425000 2.19116
0.00500000 2.10871
0.00625000 2.00589
0.00750000 1.92999
0.0100000 1.82345
0.0125000 1.75074
0.0150000 1.69707
0.0200000 1.62174
0.0253000 1.56773
0.0314750 1.52294
0.0376500 1.48969
0.0500000 1.44274
0.0625000 1.41023
0.0750000 1.38622
0.100000 1.35252
0.125000 1.32952
0.150000 1.31255
0.200000 1.28871
0.275000 1.26602
0.350000 1.25108
0.500000 1.23203
0.750000 1.21409
1.00000 1.20337
1.50000 1.19061
2.00000 1.18295
2.75000 1.17560
3.50000 1.17070
5.00000 1.16432
7.50000 1.15806
10.0000 1.15410
15.0000 1.14892
20.0000 1.14538
27.5000 1.14139
35.0000 1.13820
50.0000 1.13300
75.0000 1.12592
100.000 1.11980
150.000 1.10911
200.000 1.09970
275.000 1.08723
350.000 1.07624
500.000 1.05747
750.000 1.03262
1000.00 1.01282
1500.00 0.981463
2000.00 0.955570
2750.00 0.920038
3500.00 0.883374
4250.00 0.841063
5000.00 0.787527
5820.35 0.704610
6230.53 0.646306
6640.70 0.569246
6845.79 0.520932
7050.88 0.464513
7255.96 0.399936
7461.05 0.332567
7563.59 0.304855
7666.14 0.292838
7768.68 0.320986
7819.95 0.367070
7871.23 0.453394
7922.50 0.608114
7973.77 0.884248
8025.04 1.38906
8076.31 2.36111
8101.95 3.18231
8127.59 4.40391
8153.22 6.29129
8178.86 9.35238
8204.49 14.6384
8230.13 24.5355
8242.95 32.8092
8255.77 44.9825
8268.58 63.2590
8281.40 90.7051
8301.10 154.242
8320.80 205.283
8340.55 174.704
8360.30 115.700
8373.11 87.1429
8385.92 66.9035
8411.54 42.5242
8437.16 29.5532
8462.78 21.9812
8488.40 17.1974
8514.02 13.9802
8565.26 10.0364
8616.50 7.78010
8667.74 6.35349
8718.99 5.38486
8770.23 4.69141
8872.71 3.77581
8975.19 3.20603
9077.67 2.82114
9180.15 2.54541
9385.11 2.17898
9590.08 1.94782
9795.04 1.78916
10000.0 1.67357
10312.5 1.54721
10625.0 1.45742
11250.0 1.33710
11875.0 1.25857
12500.0 1.20173
13750.0 1.12072
15000.0 1.06033
16250.0 1.00811
17500.0 0.957855
18750.0 0.905595
20000.0 0.848777
21313.3 0.785890
21969.9 0.759538
22626.5 0.751803
23283.1 0.807205
23611.4 0.900240
23939.8 1.10095
24268.1 1.54641
24432.2 1.96198
24596.4 2.62842
24760.5 3.74530
24924.7 5.72089
25088.9 9.42974
25253.0 16.6498
25416.0 29.1777
25579.0 40.4372
25742.5 36.0198
25906.0 24.9760
26025.7 18.7852
26145.4 14.5027
26265.1 11.5661
26384.8 9.50940
26624.2 6.92678
26863.6 5.43591
27103.1 4.49562
27342.5 3.86160
27581.9 3.41602
27641.7 3.32966
27701.6 3.26137
27731.5 3.24499
27746.5 3.24914
27761.4 3.27270
27776.4 3.34290
27783.9 3.41940
27791.4 3.56062
27798.8 3.85209
27802.6 4.12522
27806.3 4.58541
27810.1 5.44475
27811.9 6.18110
27813.8 7.31745
27815.7 9.18990
27817.5 12.5452
27819.4 19.1990
27820.3 25.0196
27821.3 33.4738
27822.7 51.7853
27824.1 63.9276
27825.5 51.6949
27826.9 33.4732
27828.0 23.9686
27829.0 17.9033
27830.1 13.9425
27831.2 11.3282
27833.3 8.22158
27835.4 6.56279
27837.5 5.57656
27839.7 4.94874
27843.9 4.22814
27848.2 3.84457
27852.4 3.61688
27860.9 3.36876
27869.4 3.24105
27877.9 3.16475
27894.9 3.07697
27912.0 3.02539
27929.0 2.98876
27963.0 2.93439
28031.0 2.85256
28099.1 2.78378
28371.3 2.56033
28915.6 2.24745
29460.0 2.03698
30004.3 1.88581
31093.0 1.68274
31637.4 1.61238
31773.5 1.59848
31909.5 1.58925
31977.6 1.59033
32011.6 1.59513
32045.6 1.60684
32079.7 1.63548
32096.7 1.66509
32113.7 1.71898
32130.7 1.83028
32139.2 1.93568
32147.7 2.11558
32156.2 2.46003
32160.5 2.76252
32164.7 3.24187
32169.0 4.06485
32173.2 5.62434
32175.3 6.97075
32177.5 9.01568
32179.6 12.2612
32181.7 17.4010
32184.4 26.9545
32187.0 33.3165
32189.7 26.9661
32192.3 17.4562
32194.8 11.6291
32197.3 8.25630
32199.8 6.25216
32202.3 4.99979
32207.2 3.60891
32212.2 2.90883
32217.2 2.50978
32222.1 2.26277
32232.0 1.98557
32242.0 1.84174
32251.9 1.75761
32261.8 1.70404
32271.8 1.66774
32291.6 1.62267
32311.5 1.59645
32351.2 1.56762
32390.9 1.55186
32430.6 1.54146
32510.0 1.52730
32668.8 1.50799
32827.6 1.49243
33463.0 1.44061
34733.6 1.35756
37274.8 1.22708
39816.0 1.10201
41086.7 1.02664
41722.0 0.981696
42039.6 0.956579
42198.4 0.943220
42277.9 0.936366
42317.6 0.933154
42337.4 0.932809
42347.3 0.937945
42352.3 0.961057
42354.8 1.04547
42356.0 1.31132
42356.6 1.97609
42357.0 3.15017
42357.3 7.19252
42357.5 13.5152
42357.8 7.23324
42358.1 3.53269
42358.3 2.28472
42358.8 1.47185
42359.8 1.10728
42361.8 0.981139
42365.8 0.943163
42373.8 0.931921
42389.8 0.927576
42421.9 0.923839
42485.9 0.917674
42614.1 0.905419
42870.3 0.879568
43382.9 0.821019
43895.4 0.751291
44407.9 0.668987
44920.4 0.580958
45176.7 0.547499
45433.0 0.547763
45689.2 0.652488
45817.4 0.804647
45945.5 1.10769
46073.6 1.72040
46137.7 2.24593
46201.7 3.02521
46265.8 4.20688
46329.9 6.04087
46393.9 8.94545
46458.0 13.5568
46555.5 25.0616
46653.0 36.4286
46702.0 36.9833
46751.0 33.8106
46849.0 24.2436
46947.5 16.9672
47045.9 12.4852
47144.4 9.70508
47242.9 7.89489
47341.4 6.65521
47439.8 5.76791
47636.8 4.60410
47833.7 3.88862
48030.6 3.41112
48424.5 2.82164
48818.4 2.47602
49212.3 2.25053
49606.1 2.09232
50000.0 1.97537
50773.0 1.81675
50966.2 1.78690
51159.5 1.76015
51352.7 1.73784
51449.3 1.73608
51473.5 1.74335
51497.6 1.76880
51509.7 1.80579
51521.8 1.90866
51527.8 2.04439
51530.9 2.17306
51533.9 2.39413
51536.9 2.82127
51538.4 3.20132
51539.9 3.81167
51541.4 4.87714
51542.9 6.96290
51543.7 8.83271
51544.5 11.7411
51545.2 16.5180
51546.0 24.4825
51546.8 38.1305
51547.7 47.2831
51548.5 38.2700
51549.4 24.6108
51550.2 15.5942
51551.1 10.6365
51552.0 7.82073
51552.9 6.11794
51553.8 5.02507
51554.6 4.28737
51556.4 3.39370
51558.1 2.89082
51559.9 2.58425
51563.4 2.24309
51570.4 1.96717
51577.4 1.86033
51591.5 1.77803
51605.5 1.74673
51633.6 1.72165
51661.7 1.71069
51774.0 1.69117
51998.7 1.66767
52223.3 1.64797
52448.0 1.63050
52897.3 1.60139
53346.6 1.58048
53795.9 1.57128
54020.6 1.57436
54245.2 1.58723
54469.9 1.61914
54694.6 1.69506
54806.9 1.77074
54919.2 1.90301
55031.5 2.16038
55087.7 2.39241
55115.8 2.57028
55129.8 2.73173
55136.8 2.97616
55140.4 3.42697
55142.1 4.08037
55143.0 4.72949
55143.9 5.79212
55144.9 7.63621
55145.9 8.88245
55146.9 7.67214
55147.9 5.83979
55148.8 4.74878
55149.7 4.11478
55151.5 3.49693
55155.1 3.11694
55162.3 3.00101
55176.8 3.09132
55205.7 3.46199
55234.5 4.00475
55263.4 4.79996
55292.3 6.01385
55321.2 7.96074
55350.1 11.2464
55379.0 16.9124
55409.8 26.1794
55440.5 32.3869
55471.2 26.2331
55501.9 16.9465
55523.8 12.3646
55545.6 9.32745
55567.5 7.31410
55589.3 5.94626
55633.1 4.29723
55676.8 3.39611
55720.5 2.85654
55764.2 2.50985
55851.7 2.10767
55939.1 1.89235
56026.5 1.76355
56201.4 1.62265
56376.3 1.55001
56551.2 1.50658
56900.9 1.45700
57250.6 1.42845
57600.4 1.40877
58299.9 1.38099
58999.4 1.36027
59698.9 1.34300
61097.9 1.31408
62496.9 1.28965
63895.8 1.26856
64595.3 1.25994
64945.1 1.25685
65294.8 1.25572
65644.6 1.25952
65819.5 1.26595
65994.3 1.27963
66169.2 1.31049
66256.6 1.34074
66344.1 1.39318
66431.5 1.49451
66475.2 1.58453
66518.9 1.72962
66562.7 1.98811
66584.5 2.20310
66606.4 2.53117
66628.2 3.07753
66639.2 3.50513
66650.1 4.12122
66661.0 5.06729
66672.0 6.65237
66677.4 7.89019
66682.9 9.63990
66688.4 12.1996
66693.8 15.9958
66706.8 26.8706
66710.1 25.2393
66713.3 20.8763
66719.8 11.1459
66722.7 8.13101
66725.6 5.95415
66728.5 4.41993
66731.3 3.35129
66737.1 2.08755
66742.9 1.50023
66748.6 1.27306
66754.4 1.26084
66765.9 1.65447
66777.4 2.54989
66788.9 4.15689
66800.4 7.03754
66811.9 12.2048
66824.7 21.1449
66831.0 25.2156
66837.4 26.8468
66850.2 22.1749
66862.9 15.2171
66872.4 11.5193
66881.8 8.98295
66891.3 7.23980
66900.7 6.01432
66919.6 4.46539
66938.5 3.56917
66957.4 3.00508
66976.3 2.62715
67014.1 2.16616
67051.8 1.90486
67089.6 1.74169
67165.2 1.55556
67240.8 1.45636
67316.4 1.39668
67391.9 1.35764
67467.5 1.33048
67618.7 1.29562
67769.8 1.27441
68072.1 1.24978
68374.4 1.23539
68676.7 1.22540
69281.3 1.21111
69885.9 1.20011
70490.5 1.19051
71699.7 1.17308
74118.0 1.13990
76536.4 1.10513
81373.2 1.01804
83791.5 0.955309
85000.7 0.914547
85605.3 0.890681
85907.6 0.877666
86058.8 0.870913
86134.3 0.867822
86172.1 0.867951
86191.0 0.874994
86200.5 0.904987
86205.2 1.00974
86207.6 1.31527
86208.7 1.98893
86209.3 2.99864
86209.9 5.69433
86210.6 10.5950
86211.3 5.75771
86212.1 2.56831
86212.9 1.66556
86214.5 1.15882
86217.7 0.955770
86224.1 0.889769
86236.9 0.870116
86262.5 0.863578
86313.8 0.859614
86416.4 0.854162
86621.5 0.843668
87031.7 0.821432
87852.2 0.769933
88672.7 0.706184
89493.1 0.626027
90313.6 0.526645
90723.8 0.472710
91134.1 0.426312
91544.3 0.419285
91749.4 0.459081
91954.5 0.567855
92159.7 0.820087
92262.2 1.04709
92364.8 1.38890
92467.3 1.90846
92569.9 2.70709
92672.5 3.94541
92775.0 5.85865
92956.5 11.5815
93138.0 17.9710
93228.8 18.8148
93319.5 17.7164
93501.0 13.3960
93638.5 10.5599
93775.9 8.50685
93913.4 7.05523
94050.9 6.01304
94325.8 4.66446
94600.7 3.85677
94875.6 3.33073
95150.5 2.96538
95700.4 2.49653
96250.2 2.21113
96800.1 2.01965
97349.9 1.88072
97624.8 1.82093
97762.3 1.78604
97831.0 1.75468
97865.4 1.71287
97882.6 1.64956
97891.1 1.56653
97895.4 1.51316
97897.6 1.62063
97898.7 1.99253
97899.7 3.62662
97900.8 8.25943
97901.4 8.14265
97901.9 6.46471
97902.9 4.27286
97903.9 3.32823
97906.0 2.60038
97910.1 2.18125
97918.3 1.97236
97934.7 1.87091
97967.5 1.81832
98033.0 1.78505
98164.1 1.75409
98426.4 1.71230
98688.6 1.67785
98950.9 1.64737
99999.9 1.55068
100000 1.55051
100000 1.55050
100000 1.55048
100001 1.55047
100001 1.55043
100002 1.55036
100004 1.55022
100007 1.54995
100014 1.54940
100029 1.54829
100057 1.54611
100114 1.54178
100229 1.53333
100457 1.51722
100914 1.48774
101827 1.43754
103654 1.36050
107308 1.25361
109135 1.21131
110961 1.17300
111875 1.15579
112332 1.14836
112788 1.14277
113245 1.14157
113473 1.14482
113702 1.15391
113930 1.17606
114044 1.19771
114158 1.23397
114273 1.29928
114387 1.43002
114444 1.54786
114501 1.73551
114558 2.04851
114615 2.57896
114678 3.46837
114740 4.07557
114803 3.48961
114865 2.58654
114906 2.17176
114946 1.88680
115027 1.55424
115108 1.38406
115189 1.28778
115271 1.22842
115352 1.18920
115514 1.14173
115676 1.11439
115838 1.09647
116162 1.07340
116487 1.05772
116811 1.04511
117460 1.02339
118757 0.982402
120054 0.937982
121352 0.886166
122649 0.822710
123946 0.743694
124595 0.711253
124919 0.748617
125001 0.797756
125082 0.922936
125122 1.07052
125163 1.40228
125183 1.75896
125203 2.47372
125213 3.15112
125224 4.29046
125234 6.40658
125239 8.17461
125244 10.6320
125252 16.0096
125259 19.7850
125267 15.8288
125275 9.58300
125282 6.00966
125289 3.96146
125296 2.77373
125303 2.05337
125316 1.29181
125330 0.938334
125344 0.753849
125358 0.654160
125385 0.578756
125413 0.613781
125426 0.685683
125440 0.827163
125454 1.11659
125461 1.37278
125468 1.76397
125475 2.41039
125481 3.53214
125488 5.60879
125495 9.49984
125502 15.6023
125508 19.7124
125515 16.1347
125522 10.6802
125530 6.54235
125538 4.39062
125546 3.20628
125553 2.50564
125569 1.73913
125585 1.35726
125617 0.995173
125649 0.830688
125713 0.681161
125777 0.612195
126031 0.501466
126286 0.441432
126541 0.393078
126796 0.367397
126924 0.379208
127051 0.431935
127179 0.573756
127242 0.709837
127306 0.923229
127370 1.26187
127434 1.80590
127497 2.69486
127561 4.15435
127659 8.11823
127757 12.9353
127806 13.8044
127855 13.1600
127953 9.96653
128017 8.08310
128080 6.69033
128112 6.18640
128143 5.86122
128159 5.82368
128175 5.97738
128183 6.20217
128191 6.61172
128199 7.34880
128207 8.64485
128216 10.9503
128225 12.4870
128234 10.8339
128243 8.36490
128250 7.02010
128256 6.15321
128263 5.56862
128270 5.16891
128284 4.65255
128298 4.33151
128312 4.10470
128326 3.92941
128354 3.66269
128409 3.28311
128465 3.00293
128576 2.59248
128687 2.30006
128909 1.90800
129131 1.65626
129353 1.47939
129576 1.34678
130020 1.15606
130464 1.01842
130909 0.907484
131797 0.720660
132686 0.550041
133130 0.469697
133575 0.401082
134019 0.366705
134241 0.379045
134463 0.430150
134686 0.548962
134908 0.792058
135019 0.996697
135130 1.30366
135241 1.83037
135297 2.30117
135352 3.12809
135434 4.80451
135516 4.04424
135553 3.85056
135590 3.86431
135676 4.33473
135763 5.13712
135935 7.34655
136280 12.0782
136455 12.9576
136630 12.5077
136980 10.0000
137381 7.48116
137782 5.87824
138183 4.86554
138584 4.19535
138985 3.73009
139386 3.39510
140188 2.96508
140989 2.74773
141390 2.71391
141791 2.75230
142192 2.92090
142393 3.09830
142593 3.39253
142794 3.89657
142994 4.80964
143195 6.59574
143295 8.10933
143395 10.2803
143558 15.3067
143721 18.7667
143885 15.5502
144048 10.5908
144114 9.12316
144179 8.03015
144212 7.65760
144245 7.48691
144261 7.54240
144277 7.77940
144294 8.35655
144310 9.55411
144326 11.5306
144342 12.8426
144358 11.3168
144374 9.04743
144385 7.92741
144396 7.14520
144418 6.18970
144440 5.64177
144462 5.27948
144506 4.80129
144550 4.47324
144638 4.00727
144726 3.67209
144902 3.20719
145077 2.89918
145429 2.52141
145781 2.30205
146132 2.15958
146484 2.05932
147187 1.92557
147890 1.83818
148242 1.80457
148594 1.77608
148945 1.75292
149297 1.73882
149473 1.74059
149648 1.76225
149736 1.79478
149780 1.82448
149824 1.87154
149868 1.95094
149912 2.09616
149934 2.21737
149956 2.39828
149978 2.68153
150000 3.14738
150020 3.85394
150039 5.02690
150062 7.08814
150084 8.50487
150107 7.18996
150130 5.15493
150146 4.10289
150163 3.41585
150180 2.96624
150197 2.66515
150230 2.30344
150264 2.10664
150297 1.98857
150331 1.91294
150398 1.82572
150465 1.78199
150532 1.76688
150565 1.77560
150599 1.81717
150616 1.87615
150632 2.02306
150641 2.19361
150649 2.55909
150653 2.91855
150658 3.55201
150662 4.77905
150664 5.82227
150666 7.24185
150669 10.5428
150672 12.7318
150676 10.5461
150679 7.24640
150682 5.00498
150686 3.81312
150689 3.11854
150692 2.71345
150699 2.27326
150706 2.06204
150719 1.87122
150732 1.79145
150759 1.72669
150785 1.70067
150892 1.66695
151105 1.64421
151530 1.61800
151956 1.59816
152382 1.58103
153233 1.55143
154084 1.52636
154935 1.50595
155361 1.49843
155787 1.49445
156212 1.49835
156425 1.50712
156638 1.52643
156851 1.57016
156957 1.61277
157063 1.68599
157170 1.82504
157223 1.94566
157276 2.13376
157329 2.44798
157383 3.02239
157409 3.49821
157436 4.19791
157462 5.25284
157489 6.84582
157526 10.0638
157563 12.3172
157601 10.2235
157638 6.91013
157666 5.19858
157694 4.09491
157723 3.38139
157751 2.90775
157807 2.34717
157863 2.04696
157920 1.86950
157976 1.75642
158089 1.62601
158201 1.55623
158314 1.51427
158539 1.46735
158764 1.44189
158990 1.42553
159440 1.40432
159891 1.38955
160341 1.37751
161242 1.35712
162143 1.33960
163044 1.32575
163495 1.32242
163945 1.32746
164170 1.33964
164283 1.35209
164396 1.37347
164508 1.41291
164565 1.44569
164621 1.49446
164677 1.57059
164733 1.69651
164790 1.91814
164846 2.32192
164900 2.93473
164954 3.35808
165008 2.95388
165062 2.32418
165105 1.98617
165147 1.77288
165190 1.63768
165232 1.54915
165318 1.44675
165403 1.39355
165488 1.36346
165573 1.34578
165744 1.33126
165914 1.33759
165999 1.35127
166084 1.37830
166170 1.43324
166212 1.48259
166255 1.56182
166297 1.69980
166340 1.97021
166361 2.21230
166383 2.59856
166404 3.24907
166425 4.36788
166469 7.39630
166491 6.18752
166513 4.28146
166536 2.97674
166560 2.29966
166584 1.93243
166608 1.71854
166632 1.58502
166656 1.49771
166703 1.39486
166751 1.33958
166798 1.30707
166894 1.27369
166989 1.26227
167084 1.27477
167132 1.30551
167180 1.39517
167203 1.50462
167227 1.73878
167239 1.96097
167251 2.32939
167263 2.97103
167275 4.10857
167288 6.06574
167301 7.39093
167327 4.53819
167338 3.46948
167350 2.81682
167362 2.41122
167374 2.14759
167397 1.84098
167421 1.67766
167468 1.51671
167515 1.44267
167609 1.37952
167704 1.35728
167892 1.35743
168080 1.39709
168269 1.49566
168363 1.58844
168457 1.73922
168551 2.00080
168646 2.49873
168693 2.92524
168740 3.57048
168787 4.57611
168834 6.15037
168896 9.22267
168958 11.3541
169020 9.42786
169082 6.40896
169141 4.51363
169200 3.41306
169259 2.75754
169318 2.34757
169436 1.88934
169554 1.65479
169673 1.51876
169791 1.43233
170027 1.33122
170263 1.27461
170499 1.23816
170971 1.19200
171916 1.13696
172861 1.09602
173805 1.05963
174278 1.04345
174750 1.03048
175222 1.02544
175458 1.02983
175694 1.04461
175931 1.08256
176049 1.12067
176167 1.18638
176285 1.31091
176344 1.41865
176403 1.58592
176462 1.86531
176521 2.37470
176551 2.79656
176580 3.41701
176610 4.35298
176639 5.76809
176681 8.71639
176723 10.7532
176765 8.89510
176806 6.02096
176842 4.35290
176878 3.34616
176914 2.73107
176950 2.34517
177022 1.92967
177094 1.75372
177165 1.70329
177237 1.74196
177381 2.08673
177610 3.03241
177725 2.66703
177840 2.10359
177993 1.67879
178145 1.51403
178298 1.47885
178450 1.52255
178755 1.80892
179060 2.43594
179257 3.10989
179453 4.05987
179551 4.64696
179650 5.32723
179699 5.73573
179748 6.25871
179797 7.08907
179822 7.78210
179846 8.83565
179860 9.65314
179883 11.1517
179905 12.0215
179935 11.0206
179964 9.39156
179986 8.55888
180008 8.02568
180052 7.45551
180096 7.17642
180141 7.00241
180317 6.46131
180494 5.83855
180670 5.19337
181056 4.02119
181442 3.23626
181827 2.71798
182213 2.36075
182985 1.90038
183756 1.59860
184528 1.35113
184913 1.22641
185299 1.08816
185685 0.920817
185878 0.818636
186071 0.698637
186456 0.415125
186553 0.375802
186601 0.384937
186649 0.434057
186697 0.554381
186746 0.802457
186794 1.28026
186842 2.16114
186881 3.32355
186920 4.97069
186997 8.63847
187036 9.44067
187074 9.27302
187151 7.63170
187198 6.60544
187245 5.75874
187338 4.55815
187432 3.79763
187525 3.28955
187619 2.93068
187713 2.66480
187900 2.29659
188087 2.05110
188274 1.87281
188649 1.62550
189023 1.46640
189397 1.39834
189772 1.53778
189959 1.80201
190146 2.34487
190424 4.02598
190702 6.31367
190872 7.15339
190957 7.62306
191000 8.09286
191042 8.94268
191088 10.4158
191134 11.3827
191180 10.2049
191226 8.43433
191258 7.52730
191292 6.83850
191326 6.34553
191395 5.68280
191463 5.24128
191531 4.90994
191668 4.41872
191804 4.05612
192078 3.54203
192351 3.19286
192624 2.94085
192897 2.75088
193444 2.48379
193990 2.30446
194536 2.17494
195629 1.99795
196722 1.87971
197815 1.79242
200000 1.66391
202022 1.56671
204044 1.46155
205054 1.39100
206065 1.28673
206571 1.20859
206824 1.15874
207076 1.10006
207329 1.03449
207582 0.980075
207708 0.980703
207834 1.04290
207961 1.26352
208087 1.88395
208152 2.50107
208217 3.38558
208346 5.39845
208476 5.83271
208606 5.00375
208750 4.09340
208894 3.47658
209038 3.07017
209182 2.79270
209470 2.44721
209758 2.24473
210333 2.02044
210909 1.89962
211485 1.82454
211773 1.79719
212060 1.77497
212348 1.75744
212636 1.74517
212924 1.74307
213068 1.76342
213104 1.78408
213140 1.83644
213158 1.89845
213176 2.03510
213194 2.42169
213203 2.91846
213212 3.97520
213219 5.36405
213225 6.34704
213232 5.48795
213239 4.11417
213245 3.27926
213251 2.78956
213264 2.30230
213276 2.08709
213288 1.97768
213313 1.87517
213337 1.83132
213386 1.79752
213435 1.78799
213533 1.79295
213631 1.81643
213729 1.86190
213827 1.94685
213876 2.01636
213925 2.11678
213974 2.26498
214023 2.48411
214159 3.23850
214193 3.15349
214228 2.91698
214296 2.38897
214346 2.12930
214395 1.96444
214444 1.85972
214494 1.79130
214593 1.71255
214691 1.67158
214889 1.63256
215087 1.61466
215482 1.59801
215877 1.59185
216272 1.59565
216470 1.60421
216668 1.62150
216865 1.65567
217063 1.72659
217162 1.79061
217260 1.89141
217359 2.05613
217458 2.32861
217675 3.09808
217784 2.78542
217892 2.26000
217978 1.96907
218064 1.78423
218150 1.66531
218237 1.58571
218323 1.53248
218409 1.50863
218495 1.56753
218538 1.70814
218581 2.07452
218619 2.67186
218656 3.06402
218732 2.43046
218760 2.22001
218788 2.06849
218844 1.87710
218900 1.76572
218956 1.69373
219068 1.60421
219180 1.54722
219404 1.46786
219516 1.46196
219572 1.54213
219600 1.68283
219628 2.01483
219654 2.60413
219668 2.88220
219681 2.99629
219735 2.37853
219757 2.16164
219779 2.01136
219822 1.82960
219865 1.72748
219909 1.66291
219995 1.58384
220082 1.53402
220255 1.46333
220428 1.39934
220602 1.32077
220688 1.26768
220775 1.19709
220862 1.09585
220948 0.938545
221035 0.695046
221057 0.643485
221078 0.657840
221089 0.734556
221100 0.914204
221111 1.28989
221122 2.02867
221130 2.98066
221138 4.35712
221154 7.52098
221163 8.30632
221171 8.25611
221187 6.97327
221198 6.08695
221208 5.35786
221229 4.33854
221250 3.70550
221271 3.28996
221292 3.00135
221313 2.79119
221355 2.50861
221397 2.32789
221439 2.20340
221523 2.04284
221607 1.94380
221691 1.87659
221858 1.79061
222026 1.73740
222194 1.70083
222530 1.65293
223201 1.60004
223872 1.56919
225215 1.52942
225886 1.51123
226222 1.49593
226390 1.47495
226474 1.43900
226516 1.37533
226537 1.27111
226547 1.13279
226552 1.02605
226555 1.05188
226558 1.74702
226560 4.64559
226561 5.05209
226562 4.37817
226567 2.73625
226571 2.22101
226579 1.88401
226596 1.69896
226629 1.60332
226696 1.55444
226830 1.52852
227098 1.51308
227365 1.50961
227499 1.52440
227566 1.57631
227599 1.68792
227616 1.84322
227633 2.21065
227644 2.65915
227655 2.97768
227667 2.70521
227678 2.26665
227694 1.89285
227711 1.72755
227744 1.60127
227809 1.53493
227941 1.50713
228203 1.49431
228728 1.48594
228991 1.48656
229254 1.49773
229385 1.51577
229516 1.55997
229582 1.60593
229648 1.68782
229713 1.84387
229779 2.15010
229841 2.62994
229903 2.96498
230028 2.28513
230083 2.03372
230138 1.87612
230193 1.77579
230248 1.70919
230357 1.62967
230467 1.58566
230687 1.54017
230906 1.51728
231345 1.49388
231785 1.48113
232663 1.46550
233541 1.45456
237054 1.42194
240567 1.39076
242324 1.37116
243202 1.35848
243641 1.35213
243860 1.35815
243915 1.36947
243970 1.40477
243998 1.45346
244025 1.57823
244039 1.72548
244053 2.04414
244059 2.36030
244066 2.90430
244073 3.95229
244080 6.02481
244086 8.97563
244092 11.0895
244097 9.30412
244103 6.40784
244107 4.93336
244112 3.95387
244120 2.86088
244128 2.32492
244137 2.03252
244153 1.73721
244170 1.60145
244204 1.48200
244237 1.43169
244304 1.38942
244371 1.37147
244639 1.34627
245174 1.32519
245710 1.30446
246246 1.27678
246781 1.23408
247049 1.20181
247317 1.15585
247585 1.08492
247719 1.03281
247852 0.961703
247986 0.860115
248120 0.709340
248254 0.518366
248288 0.502075
248321 0.561893
248338 0.655865
248355 0.829676
248371 1.13471
248388 1.64892
248405 2.47351
248421 3.68257
248455 6.55067
248471 7.31108
248488 7.32745
248521 6.25240
248542 5.52047
248562 4.90283
248602 4.01462
248643 3.44487
248683 3.06472
248723 2.79677
248764 2.60055
248844 2.33427
248925 2.16343
249006 2.04542
249167 1.89414
249328 1.80197
249490 1.74055
249812 1.66520
250135 1.62285
250457 1.59848
251103 1.58380
251748 1.61267
252071 1.65288
252393 1.72598
252716 1.86313
253039 2.14436
253200 2.40146
253361 2.81476
253523 3.51229
253684 4.71508
253858 6.72870
254031 8.17542
254205 6.92788
254378 4.90204
254471 4.11603
254564 3.56743
254610 3.38620
254657 3.30129
254680 3.32830
254703 3.45635
254726 3.80744
254738 4.15337
254749 4.69523
254782 6.63369
254798 5.83564
254814 4.56296
254827 3.86174
254839 3.41379
254865 2.91916
254890 2.66741
254916 2.51479
254967 2.32937
255018 2.21062
255120 2.04934
255222 1.93714
255324 1.85445
255426 1.80187
255477 1.79777
255528 1.83909
255553 1.90645
255579 2.05923
255604 2.44056
255617 2.83568
255629 3.50275
255645 4.76008
255660 5.64467
255691 3.80622
255708 2.99646
255724 2.54680
255741 2.28443
255758 2.12016
255791 1.93230
255825 1.83073
255892 1.72211
255958 1.66142
256092 1.58562
256226 1.52916
256360 1.47358
256493 1.40242
256560 1.35015
256627 1.27183
256694 1.14585
256728 1.10455
256744 1.20392
256753 1.38003
256761 1.75724
256772 2.85450
256783 4.41133
256794 4.84826
256805 4.22735
256824 3.20847
256843 2.66885
256862 2.36976
256881 2.18791
256919 1.98053
256957 1.86728
257032 1.74626
257108 1.68188
257260 1.61228
257411 1.57344
257714 1.52851
258017 1.50167
258320 1.48362
258623 1.47263
258775 1.47176
258926 1.48105
259002 1.49825
259078 1.54688
259116 1.60810
259153 1.75015
259172 1.90282
259191 2.19630
259210 2.85086
259220 3.49684
259229 4.54214
259240 6.45490
259252 7.82341
259263 6.63402
259274 4.71375
259286 3.37400
259299 2.66506
259311 2.27104
259323 2.03624
259347 1.78689
259372 1.66566
259421 1.55640
259469 1.50977
259567 1.47048
259665 1.45372
259860 1.43792
260055 1.42926
260836 1.40863
261617 1.39315
261813 1.39145
262008 1.39770
262106 1.41324
262203 1.46398
262252 1.53245
262301 1.69632
262325 1.87066
262350 2.19731
262374 2.87523
262386 3.48385
262398 4.39825
262417 6.42789
262435 7.87652
262454 6.73268
262472 4.87320
262492 3.54837
262512 2.81959
262533 2.40296
262553 2.14901
262593 1.86832
262633 1.72602
262714 1.59077
262795 1.52956
262956 1.47613
263118 1.45538
263279 1.45040
263440 1.46461
263521 1.48775
263602 1.53885
263682 1.66423
263723 1.79431
263763 2.01556
263810 2.41831
263857 2.70650
263904 2.47386
263950 2.09757
263979 1.92586
264008 1.80358
264066 1.65471
264125 1.57446
264183 1.52717
264299 1.47645
264415 1.45091
264648 1.42624
264881 1.41486
265113 1.40980
265346 1.41222
265462 1.42075
265579 1.44700
265637 1.48098
265695 1.56126
265724 1.64833
265753 1.81887
265782 2.20791
265797 2.59628
265811 3.24326
265828 4.38754
265845 5.21045
265861 4.50743
265878 3.35973
265890 2.78052
265902 2.39550
265925 1.96649
265949 1.75704
265973 1.64236
266021 1.52905
266068 1.47716
266163 1.43209
266259 1.41314
266449 1.39685
266639 1.38943
267401 1.37679
268924 1.36401
271969 1.34464
273492 1.33500
275015 1.32418
276538 1.31054
277299 1.30275
277680 1.30517
277870 1.33207
277965 1.40566
278013 1.52562
278037 1.65048
278061 1.86284
278088 2.24617
278115 2.52093
278143 2.30318
278170 1.94868
278208 1.64969
278246 1.50927
278323 1.39559
278399 1.35221
278475 1.33057
278628 1.30908
278780 1.29767
279391 1.27164
280001 1.25361
280154 1.25808
280306 1.28798
280383 1.33540
280459 1.45776
280497 1.59535
280535 1.86704
280554 2.10840
280573 2.48245
280592 3.09006
280611 4.07690
280635 5.92380
280658 7.26519
280681 6.16704
280705 4.35637
280728 3.15594
280752 2.47422
280775 2.07556
280799 1.82759
280846 1.54929
280893 1.40226
280986 1.24638
281080 1.15171
281268 0.989166
281362 0.944830
281409 1.03877
281433 1.19881
281456 1.53366
281473 1.94769
281489 2.55807
281522 4.07293
281555 4.54939
281588 3.97303
281614 3.45016
281641 3.04363
281667 2.74290
281693 2.52145
281746 2.22486
281799 2.04094
281851 1.91728
281904 1.82940
282009 1.71319
282115 1.64023
282220 1.59026
282431 1.52626
282641 1.48694
282852 1.46025
283273 1.42611
283694 1.40496
284115 1.39038
284958 1.37114
285800 1.35853
286643 1.34920
287485 1.34234
287906 1.34488
288012 1.35142
288117 1.37262
288170 1.40260
288222 1.48179
288249 1.57891
288275 1.79796
288288 2.02526
288301 2.44202
288315 3.31132
288321 4.09953
288328 5.27789
288337 7.76693
288346 9.58808
288356 8.10140
288365 5.63538
288375 3.90485
288385 2.97704
288395 2.45997
288406 2.15318
288426 1.82285
288446 1.66067
288487 1.51296
288527 1.44936
288609 1.39605
288690 1.37417
288852 1.35584
289015 1.34791
289664 1.33630
290963 1.32750
292263 1.32189
293562 1.31763
294861 1.31449
296160 1.31270
297460 1.31320
298109 1.31511
298434 1.31744
298596 1.32388
298678 1.35129
298718 1.45268
298739 1.74401
298749 2.34262
298754 3.14991
298759 4.94215
298762 7.22985
298766 8.90523
298770 7.54808
298773 5.28604
298778 3.46304
298783 2.60167
298792 1.91588
298812 1.54795
298850 1.40154
298927 1.35225
299080 1.33852
299387 1.34150
299693 1.35524
300000 1.38394
300243 1.43074
300365 1.47139
300486 1.53445
300608 1.63843
300729 1.82337
300851 2.18260
300911 2.48756
300972 2.92573
301073 3.97567
301173 4.74262
301273 4.14435
301373 3.14740
301487 2.41750
301602 2.03053
301716 1.81645
301831 1.68913
301945 1.60816
302059 1.55398
302288 1.48889
302517 1.45361
302745 1.43328
303203 1.41482
304118 1.41710
305033 1.44913
305947 1.51524
306862 1.64507
307320 1.75967
307777 1.94958
308006 2.10382
308235 2.34694
308349 2.53326
308463 2.80013
308578 3.20643
308692 3.84851
308950 5.77523
309079 5.30247
309208 4.43313
309374 3.85735
309539 3.73446
309705 3.84350
309870 4.09022
310465 5.62726
311060 6.80482
311650 5.80125
312240 4.17205
312780 3.16141
313319 2.54964
313859 2.17101
314399 1.92220
314939 1.74506
315478 1.60149
315748 1.52932
316018 1.44233
316153 1.38417
316288 1.30531
316423 1.20095
316490 1.19399
316524 1.29579
316558 1.68273
316586 2.55894
316614 3.90779
316642 4.39185
316670 3.89141
316703 3.24388
316735 2.80631
316767 2.52282
316799 2.33180
316864 2.09661
316928 1.95987
316993 1.87047
317057 1.80736
317186 1.72299
317315 1.66790
317444 1.62812
317701 1.57252
318217 1.50379
318732 1.45891
319763 1.39828
320794 1.35600
322856 1.29483
324918 1.24519
326980 1.19432
328011 1.16470
329042 1.12948
330073 1.08547
331104 1.02983
331620 1.00063
331877 0.989666
332135 0.987394
332393 1.00841
332522 1.03936
332651 1.09982
332780 1.22080
332908 1.48409
332973 1.73688
333037 2.16212
333102 2.92717
333166 4.36333
333226 6.55045
333286 8.19875
333346 6.97601
333406 4.87549
333444 3.92517
333483 3.28524
333559 2.60002
333624 2.37459
333689 2.33358
333819 2.59323
334078 3.72380
334338 4.17392
334597 3.76654
334849 3.33587
335101 3.11238
335352 3.16353
335604 3.65270
335999 5.06144
336197 4.45355
336394 3.47996
336563 2.89996
336732 2.53045
336900 2.29036
337069 2.12681
337407 1.92202
337744 1.79976
338082 1.71789
338419 1.65861
339094 1.57700
339770 1.52209
340445 1.48164
341795 1.42404
344495 1.34978
347196 1.29346
349896 1.23480
352596 1.15098
353947 1.08271
354622 1.03428
355297 0.969331
355972 0.877565
356309 0.816393
356647 0.741351
357322 0.555670
357491 0.523355
357660 0.534466
357828 0.663668
357913 0.823309
357997 1.09545
358093 1.60730
358188 2.40136
358379 4.48394
358570 5.31281
358761 4.74989
358996 3.87817
359231 3.27852
359465 2.89356
359700 2.64497
359935 2.49213
360052 2.44962
360170 2.43638
360287 2.46993
360346 2.51727
360404 2.60031
360463 2.74428
360522 3.00033
360580 3.48041
360639 4.41784
360738 6.73753
360762 6.52451
360787 5.85242
360836 4.30070
360895 3.16888
360954 2.62081
361012 2.33774
361071 2.17691
361130 2.07659
361189 2.00932
361306 1.92492
361541 1.83652
361776 1.78542
362246 1.71914
362716 1.67318
363655 1.60950
364595 1.56650
365535 1.53535
366475 1.51148
367414 1.49230
367884 1.49308
368002 1.50492
368119 1.54506
368178 1.59937
368237 1.72713
368266 1.86016
368295 2.10113
368325 2.57950
368354 3.57932
368379 5.03770
368403 6.12172
368428 5.34977
368453 4.02858
368480 3.06248
368508 2.53284
368535 2.23084
368563 2.04619
368618 1.84306
368673 1.73946
368783 1.64041
368892 1.59496
369112 1.55391
369332 1.53566
369772 1.51990
370212 1.51438
371092 1.51636
371971 1.53144
372851 1.56300
373731 1.62188
374610 1.73214
375490 1.94249
377170 2.61415
378015 2.81365
378438 3.18894
378649 3.64540
378860 4.49968
378953 5.07402
379171 6.94761
379388 8.37096
379606 7.27963
379823 5.38866
379996 4.34554
380168 3.68684
380513 3.01631
380858 2.75817
381203 2.69762
381892 2.95984
382237 3.29657
382582 3.82175
383648 5.98331
384181 5.15178
384714 3.69821
385160 2.86984
385606 2.36629
386052 2.05782
386498 1.86092
387390 1.63720
388282 1.52011
389174 1.44977
390065 1.40146
390957 1.36148
391403 1.34482
391515 1.34712
391626 1.36871
391682 1.40501
391738 1.50041
391766 1.60730
391794 1.81293
391821 2.25307
391835 2.65399
391849 3.26351
391870 4.65143
391891 5.69209
391913 4.99215
391934 3.77170
391953 2.99706
391972 2.51904
391992 2.21980
392011 2.02398
392049 1.79400
392088 1.66941
392165 1.54330
392242 1.48218
392397 1.42316
392551 1.39364
392859 1.36046
393168 1.33696
393477 1.31262
393785 1.27739
393940 1.24822
394094 1.19847
394248 1.09014
394325 0.981176
394364 0.936761
394383 0.983271
394402 1.24404
394419 1.91838
394435 3.03788
394451 3.53141
394467 3.22195
394489 2.68573
394510 2.33368
394554 1.96795
394597 1.79284
394640 1.69332
394727 1.58539
394813 1.52835
394986 1.46889
395159 1.43788
395505 1.40526
395850 1.38773
397234 1.35797
400000 1.34460
402903 1.35914
405806 1.41794
407258 1.48431
408709 1.60937
409435 1.71674
410161 1.88731
410524 2.01863
410887 2.21689
411068 2.36854
411250 2.60126
411340 2.78052
411431 3.04765
411476 3.23967
411522 3.49647
411567 3.85532
411612 4.37037
411666 5.24593
411719 6.01954
411746 5.82871
411773 5.05223
411826 3.19696
411883 2.28270
411939 2.01984
411996 1.97901
412052 2.01191
412278 2.27691
412504 2.55741
412730 2.84831
413108 3.39589
413485 4.03676
414240 5.37327
414485 5.77156
414729 6.23163
414959 6.80776
415189 7.26292
415304 6.92056
415420 5.78417
415535 4.26061
415650 3.14848
415760 2.65245
415890 2.52322
416020 2.63133
416280 3.10417
416444 3.48439
416609 3.93707
416691 4.22114
416773 4.59738
416855 5.19534
416896 5.67498
416937 6.37021
416994 7.77840
417052 8.87912
417109 8.33706
417166 7.27772
417209 6.72241
417253 6.37784
417340 6.05169
417426 5.94739
417513 5.92676
417687 5.94568
417860 5.93627
418253 5.66228
418645 5.12199
419430 3.93267
419986 3.27685
420542 2.79279
421655 2.17380
422211 1.97669
422767 1.84474
423045 1.82098
423323 1.87423
423462 1.97402
423601 2.19833
423671 2.40580
423740 2.73411
423810 3.26930
423879 4.15006
424043 7.01152
424125 6.02107
424207 4.22902
424291 3.02782
424375 2.37919
424459 2.03267
424544 1.86056
424712 1.89831
424796 2.15024
424880 2.64677
425031 4.25095
425107 5.04432
425182 5.39093
425333 4.84982
425483 3.98191
425606 3.44941
425730 3.06959
425976 2.59197
426223 2.31384
426469 2.13551
426716 2.01671
426963 1.95179
427086 1.95545
427209 2.02853
427271 2.13365
427332 2.35921
427363 2.56631
427394 2.89487
427425 3.43331
427456 4.32336
427494 6.02708
427531 7.33348
427569 6.41853
427607 4.78115
427633 3.95354
427659 3.38414
427686 2.99397
427712 2.72071
427764 2.37752
427817 2.17887
427921 1.96598
428026 1.85498
428236 1.73602
428445 1.66637
428864 1.57203
429283 1.49523
429702 1.41534
430121 1.30945
430331 1.22996
430540 1.10686
430645 1.01305
430750 0.882048
430855 0.721027
430907 0.708542
430933 0.802761
430959 1.07933
430978 1.47022
430996 2.09525
431032 3.84160
431068 4.66283
431104 4.27236
431152 3.52136
431199 3.00238
431247 2.66756
431295 2.44263
431391 2.16442
431486 2.00117
431582 1.89345
431677 1.81658
431868 1.71205
432250 1.58865
432633 1.50590
433015 1.43068
433397 1.33741
433588 1.26761
433779 1.15525
433875 1.06355
433970 0.920745
434066 0.684425
434114 0.562039
434137 0.591445
434161 0.892694
434173 1.28145
434185 1.91473
434209 3.67158
434233 4.49116
434257 4.15152
434281 3.60495
434305 3.17355
434354 2.63481
434403 2.33471
434451 2.14920
434549 1.93317
434646 1.81054
434840 1.67146
435035 1.58791
435230 1.52536
435424 1.47501
435521 1.46124
435619 1.48228
435667 1.53456
435716 1.66696
435765 2.00816
435789 2.35381
435813 2.91159
435852 4.31385
435871 5.01069
435890 5.34916
435967 3.83413
436003 3.18648
436040 2.77272
436076 2.50232
436113 2.31769
436185 2.08829
436258 1.95452
436404 1.80754
436549 1.72869
436695 1.67908
436841 1.64459
437132 1.59898
437714 1.54874
438297 1.52151
439462 1.49859
440627 1.50736
441791 1.56083
442956 1.71321
443539 1.87480
444121 2.16186
444704 2.70142
445286 3.74949
445840 5.42400
446394 6.71360
446948 5.85809
447502 4.31609
448162 3.12250
448823 2.48971
449483 2.13688
450143 1.92343
450804 1.78453
451464 1.68858
452784 1.56649
454105 1.49267
455425 1.44309
458067 1.37944
463349 1.30835
468631 1.26319
473913 1.22819
479196 1.20377
481837 1.20293
484478 1.22887
485798 1.26900
487119 1.35603
488440 1.55822
489760 2.06742
491520 3.19871
492405 2.79900
492626 2.58773
492848 2.33928
493069 2.03980
493179 1.89453
493235 1.86488
493290 1.94019
493322 2.08761
493389 2.91208
493456 4.43603
493524 5.22333
493591 4.94654
493649 4.52478
493707 4.16476
493765 3.88677
493823 3.67548
493940 3.38512
494056 3.20278
494288 3.00729
494521 2.94083
494986 3.09633
495219 3.38057
495335 3.62425
495451 3.98283
495578 4.55803
495642 4.88959
495705 5.11278
495768 4.92854
495832 4.08035
495895 2.92767
495958 2.09814
496028 1.68335
496098 1.57897
496237 1.69653
496516 2.13667
496795 2.58026
497074 3.04821
498142 4.75370
498409 4.59460
498676 3.91569
499209 1.70566
499345 1.32996
499480 1.23433
499590 1.42909
499699 1.87311
499919 3.17660
500138 4.21743
500357 4.58683
500796 4.22022
501234 3.57981
501880 2.84351
502527 2.35371
503819 1.77664
505112 1.47398
505758 1.41533
506404 1.47635
507186 1.88386
507968 2.70781
508750 3.13780
509532 2.92037
510523 2.49794
511514 2.18329
512010 2.06290
512505 1.96109
512753 1.91788
513001 1.88628
513125 1.88313
513249 1.90778
513311 1.94730
513373 2.03163
513435 2.21873
513466 2.39072
513497 2.65015
513546 3.28145
513596 3.77885
513695 2.92406
513732 2.61385
513769 2.40266
513844 2.15654
513918 2.02667
513993 1.94878
514142 1.85991
514291 1.80936
514590 1.75300
514888 1.73058
515187 1.74661
515485 1.83628
515784 2.09885
516082 2.78223
516352 3.98699
516486 4.59667
516621 4.89910
517161 3.66685
517341 3.25926
517521 2.95545
517881 2.55782
518242 2.31971
518602 2.16420
519322 1.97433
520043 1.86318
520763 1.79465
521483 1.76657
521844 1.77975
522204 1.83669
522564 2.00494
522744 2.18632
522924 2.49387
523159 3.13809
523394 3.65087
523864 2.88013
524044 2.60985
524224 2.44923
524584 2.37809
524764 2.46526
524944 2.66999
525124 3.06494
525304 3.77822
525519 5.16926
525733 6.28250
525948 5.58739
526163 4.27432
526372 3.38768
526581 2.85372
526790 2.52511
526999 2.31159
527416 2.05969
527834 1.91961
528252 1.83115
528670 1.77000
529505 1.68974
530341 1.63785
531177 1.60028
532848 1.54697
534519 1.50873
536190 1.47843
539533 1.43048
542875 1.39144
546217 1.35840
547889 1.34691
549560 1.34964
550395 1.36811
551231 1.42122
551649 1.47732
552067 1.57437
552484 1.74700
552902 2.05514
553395 2.65206
553887 3.12682
554871 2.35523
555348 2.01936
555824 1.85160
556062 1.83757
556301 1.90401
556539 2.13879
556777 2.76657
556976 3.78469
557076 4.31150
557175 4.58685
557572 3.35550
557755 2.81967
557938 2.47244
558120 2.24376
558303 2.08643
558669 1.88846
559034 1.77059
559400 1.69255
559766 1.63684
560497 1.56182
561228 1.51272
561959 1.47737
563422 1.42840
564884 1.39498
566346 1.37164
567078 1.36514
567809 1.36836
568174 1.38070
568540 1.41624
568723 1.45680
568906 1.53642
568997 1.60594
569088 1.71254
569180 1.88132
569271 2.15097
569510 3.15115
569630 2.88921
569749 2.36350
569893 1.95427
570038 1.74862
570182 1.64451
570326 1.59302
570615 1.57772
570903 1.65670
571439 1.95836
571975 1.68365
572215 1.57065
572454 1.50088
572934 1.43189
573413 1.40912
573892 1.41519
574371 1.45530
574851 1.56044
575090 1.66334
575330 1.83241
575569 2.11980
575809 2.61505
576086 3.53696
576363 4.30472
576641 3.90970
576918 3.10750
577115 2.72232
577311 2.51152
577704 2.52667
578047 2.96115
578390 3.33843
579077 2.53460
579419 2.17671
579760 1.95053
580102 1.80388
580444 1.70382
581127 1.57869
581811 1.50558
582494 1.46158
583177 1.44539
583519 1.45669
583861 1.50158
584032 1.55222
584202 1.64280
584373 1.81070
584544 2.12760
584719 2.67158
584893 3.11729
585068 2.86746
585242 2.36874
585393 2.06202
585544 1.87104
585695 1.75464
585846 1.68569
586147 1.64437
586449 1.73857
586872 2.07301
587294 1.90966
587491 1.90010
587687 2.02229
587884 2.37199
588080 3.20152
588241 4.44938
588402 5.47587
588563 4.89398
588724 3.73090
588849 3.06882
588973 2.62594
589098 2.32940
589223 2.12536
589472 1.87240
589721 1.72710
589971 1.63479
590220 1.57148
590718 1.49031
591217 1.43980
591715 1.40446
592713 1.35584
593710 1.32130
594707 1.29497
595205 1.28709
595704 1.29231
595953 1.31035
596203 1.35971
596327 1.41141
596452 1.50103
596576 1.66187
596701 1.95320
596845 2.51063
596988 2.96399
597276 2.26987
597446 1.89779
597617 1.69080
597787 1.57008
597957 1.49408
598298 1.40581
598638 1.35629
599319 1.30047
600000 1.26686
600864 1.23747
601729 1.22285
602161 1.22969
602593 1.26599
602809 1.31024
603025 1.39181
603241 1.54407
603457 1.82569
603721 2.40882
603852 2.71270
603984 2.87757
604511 2.24555
604761 1.96448
605011 1.80184
605261 1.73096
605511 1.75171
605769 1.87858
606026 1.98590
606541 1.70556
606939 1.53329
607338 1.44820
607736 1.40848
608135 1.40156
608533 1.43300
608931 1.52955
609330 1.76183
609728 2.29438
610075 3.14527
610422 3.82770
610769 3.38267
611115 2.54015
611293 2.22068
611470 2.07016
611641 2.25456
611811 2.85263
611982 3.20589
612152 3.03080
612381 2.64675
612609 2.35970
612838 2.16139
613067 2.01954
613524 1.83132
613981 1.71161
614895 1.56557
615810 1.47669
617639 1.36439
619468 1.28273
621296 1.20283
623125 1.09942
624040 1.02354
624497 0.973521
624954 0.910824
625411 0.830072
625869 0.726075
626326 0.615380
626554 0.604590
626783 0.746984
626897 0.958149
627011 1.33100
627239 2.52869
627468 3.29746
627696 3.16656
627900 2.84613
628104 2.56267
628308 2.34395
628512 2.17807
628919 1.95004
629327 1.80337
630143 1.62632
630958 1.52229
631774 1.45592
632589 1.42553
632997 1.43752
633405 1.49943
633608 1.57303
633812 1.70707
634016 1.95628
634220 2.42080
634451 3.31104
634681 4.04976
635142 3.04077
635293 2.71152
635444 2.49215
635746 2.31495
636047 2.47823
636198 2.75335
636349 3.24436
636558 4.36642
636766 5.30730
636974 4.76859
637182 3.68524
637360 3.00741
637539 2.56723
637717 2.27890
637896 2.08233
638252 1.83788
638609 1.69393
638966 1.59858
639322 1.52968
640036 1.43299
640749 1.36338
641463 1.30603
642890 1.20275
644316 1.09125
645030 1.02475
645743 0.946219
646457 0.851645
647170 0.740733
647527 0.684437
647884 0.639586
648240 0.632961
648597 0.727369
648849 0.920752
649102 1.28323
649606 2.46318
650111 3.21312
650615 3.13853
651211 2.78564
651509 2.62240
651658 2.56731
651733 2.61751
651770 2.78944
651788 3.02441
651807 3.52277
651841 5.01537
651858 4.68423
651875 3.98479
651892 3.47180
651910 3.16637
651945 2.85780
652015 2.62862
652156 2.47388
652437 2.33834
652719 2.24844
653000 2.17628
653563 2.06274
654126 1.97596
655251 1.85058
656377 1.76320
658627 1.64533
660878 1.56263
663129 1.49051
664255 1.45210
665380 1.40690
666506 1.34647
667068 1.30498
667631 1.24947
668194 1.16913
668475 1.11307
668757 1.03990
669038 0.941012
669319 0.804674
669601 0.632259
669741 0.569648
669882 0.633965
669959 0.810794
670036 1.16394
670113 1.70866
670190 2.33004
670345 3.07209
670499 3.05102
670677 2.78149
670855 2.54013
671033 2.35992
671211 2.22688
671388 2.12641
671566 2.04856
671922 1.93647
672278 1.85988
672634 1.80422
673345 1.72834
674057 1.67847
674768 1.64272
676191 1.59377
679037 1.53612
681883 1.50015
684729 1.47324
687575 1.45017
690421 1.42594
691844 1.40971
692555 1.40691
692733 1.41597
692911 1.44834
693000 1.49042
693089 1.58075
693178 1.79887
693222 2.02098
693267 2.39001
693325 3.17012
693383 3.83554
693441 3.53367
693499 2.86564
693556 2.40172
693612 2.11820
693724 1.82757
693837 1.69336
693949 1.62035
694174 1.54609
694399 1.50960
694849 1.47400
695299 1.45622
696199 1.43725
697099 1.42603
698899 1.41082
700699 1.39921
702499 1.39002
704299 1.38788
705199 1.39741
705649 1.41037
706099 1.43576
706549 1.48751
706999 1.60235
707224 1.71240
707449 1.89439
707674 2.20825
707899 2.75916
708161 3.81626
708422 4.72921
708684 4.31195
708945 3.37128
709205 2.70682
709465 2.30895
709725 2.06679
709985 1.91154
710245 1.80660
710505 1.73234
711024 1.63619
711544 1.57788
712064 1.53927
713104 1.49169
714143 1.46346
715183 1.44452
717262 1.41992
719341 1.40367
721420 1.39129
725579 1.37163
729737 1.35401
733896 1.33447
735975 1.32210
738054 1.30571
740133 1.28242
740653 1.27737
741173 1.28093
741433 1.29574
741693 1.34182
741823 1.39552
741953 1.49854
742083 1.70968
742212 2.16084
742329 2.89832
742446 3.53903
742563 3.27385
742680 2.65811
742755 2.34965
742829 2.12367
742979 1.83982
743129 1.68032
743279 1.58251
743578 1.47159
743878 1.41035
744476 1.33947
745075 1.28904
745674 1.23540
746273 1.15544
746573 1.08956
746872 0.982371
747022 0.898881
747172 0.781118
747321 0.624599
747396 0.560349
747471 0.607282
747509 0.750453
747546 1.04236
747621 2.06156
747697 2.77699
747772 2.78351
747933 2.34311
748095 2.05783
748257 1.89278
748418 1.78871
748742 1.66643
749065 1.59732
749389 1.55282
749712 1.52168
750359 1.48067
751005 1.45458
751652 1.43628
752945 1.41184
755532 1.38410
758119 1.36743
768465 1.32900
778812 1.29438
781399 1.28093
783986 1.25926
785279 1.24036
786572 1.20604
787219 1.17430
787866 1.11598
788189 1.06324
788513 0.971832
788674 0.896191
788836 0.781497
788998 0.605184
789078 0.509367
789159 0.527157
789192 0.653589
789225 0.920428
789291 1.87981
789357 2.58047
789423 2.60984
789588 2.15825
789753 1.88888
789918 1.74145
790084 1.65124
790414 1.54774
790745 1.49045
791406 1.42885
792067 1.39604
792728 1.37540
793389 1.36103
794711 1.34190
797356 1.31996
800000 1.30632
804757 1.28974
807135 1.28439
809513 1.28261
811891 1.28966
813080 1.30109
814270 1.32431
815459 1.37196
816648 1.47590
817242 1.57281
817837 1.72801
818432 1.98424
819026 2.41097
819808 3.32666
820590 4.15249
821372 3.83739
822154 3.03889
822786 2.55042
823418 2.22436
824050 2.00756
824683 1.85912
825947 1.67644
827211 1.57242
828475 1.50688
829740 1.46232
832268 1.40596
837325 1.34824
842382 1.31806
847439 1.30172
852496 1.30497
855025 1.32572
857553 1.38279
860082 1.53967
861346 1.70919
862610 2.00179
864255 2.63849
865900 3.21461
867545 3.01643
869190 2.49681
870462 2.18526
871733 1.96921
874277 1.71462
876820 1.57882
879364 1.49645
881907 1.44090
884450 1.40158
885722 1.38886
886994 1.38901
887630 1.40358
888265 1.44822
888583 1.49760
888901 1.58742
889219 1.75931
889537 2.09971
890156 3.23723
890465 3.04260
890774 2.50621
891053 2.14448
891332 1.91513
891611 1.76911
891890 1.67213
892448 1.55545
893005 1.48923
893563 1.44646
894121 1.41588
895237 1.37221
897468 1.30169
898583 1.25980
898862 1.25418
899141 1.26740
899281 1.29551
899420 1.36094
899560 1.51083
899699 1.84905
899842 2.51674
899914 2.88875
899985 3.11795
900272 2.53253
900414 2.20580
900557 1.99366
900699 1.85449
900842 1.75921
901126 1.64031
901411 1.57048
901981 1.49292
902550 1.45061
903690 1.40424
904829 1.37772
907107 1.34496
909386 1.32213
913942 1.28354
916221 1.26803
916790 1.27001
917360 1.28527
917645 1.30652
917930 1.35047
918214 1.44577
918499 1.66018
918749 2.01717
918999 2.34982
919249 2.24812
919499 1.95633
919672 1.79531
919846 1.67898
920192 1.53546
920538 1.45608
920885 1.40757
921578 1.35257
922270 1.32300
922963 1.30696
923656 1.30596
924002 1.31809
924349 1.35627
924522 1.40177
924695 1.49563
924868 1.72164
924955 1.95864
925042 2.37216
925243 3.95238
925344 3.73106
925445 3.04613
925544 2.56387
925643 2.28759
925741 2.13901
925840 2.06744
926037 2.06287
926234 2.18663
926964 3.19577
927329 3.00309
927694 2.49034
928132 2.05493
928571 1.81238
929009 1.67173
929447 1.58355
930323 1.48185
931200 1.42557
932953 1.36383
934706 1.32786
936458 1.30109
938211 1.27733
939964 1.25828
940402 1.26012
940841 1.27648
941060 1.29886
941279 1.34337
941498 1.43361
941717 1.61745
941953 1.97901
942188 2.31493
942659 1.95827
942903 1.75013
943146 1.62000
943390 1.53745
943633 1.48234
944121 1.41501
944608 1.37590
945582 1.33173
946556 1.30608
948505 1.27350
950454 1.24924
954351 1.20392
955325 1.19389
956299 1.19208
956787 1.20319
957274 1.24149
957517 1.28549
957761 1.36597
958005 1.51751
958248 1.80502
958533 2.40225
958818 2.96230
959103 2.82904
959387 2.40388
959686 2.07571
959985 1.88624
960284 1.78702
960584 1.75045
960883 1.76971
961182 1.85700
961481 2.05062
961780 2.43018
962409 3.81557
962566 3.82123
962723 3.55383
963037 2.77694
963271 2.33045
963506 2.03090
963740 1.83249
963974 1.69807
964443 1.53756
964912 1.45559
965380 1.42241
965849 1.44098
966317 1.55871
966552 1.69885
966786 1.94523
967391 3.00811
967694 2.85727
967997 2.38705
968219 2.12415
968441 1.95347
968884 1.81472
969328 1.89597
969771 2.26606
970223 3.06696
970675 3.81973
971127 3.61067
971578 3.00338
971928 2.62413
972278 2.35177
972977 2.01638
973677 1.82911
974377 1.71286
975776 1.57783
977176 1.50149
979974 1.41561
982773 1.36537
985572 1.33055
988371 1.30881
989770 1.30905
991169 1.33330
991869 1.36813
992569 1.43796
993268 1.58000
993968 1.87055
994702 2.42987
995436 2.96233
996170 2.82862
996904 2.39610
997678 2.05221
998452 1.84014
999226 1.70727
1.00000E+06 1.61930
1.00143E+06 1.51839
1.00287E+06 1.45793
1.00574E+06 1.38742
1.01147E+06 1.31338
1.01434E+06 1.28809
1.01721E+06 1.27062
1.01864E+06 1.27088
1.02007E+06 1.29255
1.02079E+06 1.32454
1.02151E+06 1.39080
1.02222E+06 1.53206
1.02294E+06 1.84048
1.02359E+06 2.36653
1.02424E+06 2.87887
1.02489E+06 2.75128
1.02554E+06 2.30501
1.02625E+06 1.93988
1.02695E+06 1.71946
1.02766E+06 1.58325
1.02836E+06 1.49300
1.02977E+06 1.37989
1.03118E+06 1.30710
1.03259E+06 1.25080
1.03400E+06 1.20616
1.03471E+06 1.19477
1.03541E+06 1.20820
1.03612E+06 1.29693
1.03682E+06 1.61927
1.03739E+06 2.22287
1.03767E+06 2.56942
1.03795E+06 2.78827
1.03909E+06 2.34530
1.03961E+06 2.09099
1.04013E+06 1.91481
1.04065E+06 1.79485
1.04117E+06 1.71536
1.04168E+06 1.67103
1.04220E+06 1.67191
1.04272E+06 1.75996
1.04324E+06 2.05741
1.04366E+06 2.58170
1.04408E+06 3.08549
1.04492E+06 2.55374
1.04521E+06 2.31991
1.04551E+06 2.14639
1.04609E+06 1.92270
1.04668E+06 1.79176
1.04727E+06 1.70747
1.04844E+06 1.60540
1.04962E+06 1.54481
1.05196E+06 1.47304
1.05431E+06 1.42922
1.06370E+06 1.32964
1.07309E+06 1.23027
1.07779E+06 1.11184
1.07896E+06 1.05075
1.08013E+06 0.954212
1.08072E+06 0.882242
1.08131E+06 0.785439
1.08189E+06 0.662322
1.08219E+06 0.603926
1.08248E+06 0.581820
1.08269E+06 0.627459
1.08290E+06 0.772090
1.08331E+06 1.43470
1.08372E+06 2.03533
1.08413E+06 2.15533
1.08456E+06 2.06863
1.08498E+06 1.95572
1.08541E+06 1.85956
1.08584E+06 1.78335
1.08669E+06 1.67449
1.08754E+06 1.60198
1.08925E+06 1.51098
1.09096E+06 1.45368
1.09266E+06 1.41111
1.09437E+06 1.37687
1.09522E+06 1.36515
1.09607E+06 1.36760
1.09650E+06 1.38483
1.09693E+06 1.43077
1.09735E+06 1.54602
1.09778E+06 1.83026
1.09855E+06 2.86128
1.09931E+06 2.40305
1.09967E+06 2.13326
1.10002E+06 1.95342
1.10037E+06 1.83303
1.10073E+06 1.74995
1.10144E+06 1.64510
1.10215E+06 1.58298
1.10356E+06 1.51307
1.10498E+06 1.47428
1.11065E+06 1.40569
1.12198E+06 1.35538
1.14466E+06 1.30949
1.19000E+06 1.25385
1.19500E+06 1.24831
1.20000E+06 1.24277
1.20000E+06 2.55992
1.22500E+06 2.58340
1.25000E+06 2.60688
1.50000E+06 2.83868
1.60000E+06 2.92360
1.60011E+06 2.92369
1.60011E+06 2.92369
1.60011E+06 2.92370
1.75000E+06 3.04123
1.77367E+06 3.05881
1.77369E+06 3.05883
1.77369E+06 3.05883
2.00000E+06 3.20215
2.04089E+06 3.22445
2.04089E+06 3.22445
2.25000E+06 3.31840
2.30000E+06 3.33690
2.50000E+06 3.39430
2.70000E+06 3.43125
2.75000E+06 3.43723
2.94989E+06 3.45120
3.00000E+06 3.45471
3.17035E+06 3.45538
3.17035E+06 3.45538
3.17074E+06 3.45537
3.18790E+06 3.45502
3.18818E+06 3.45502
3.18818E+06 3.45502
3.25000E+06 3.45307
3.25158E+06 3.45301
3.25158E+06 3.45301
3.50000E+06 3.43726
3.72485E+06 3.41403
3.72578E+06 3.41392
3.72578E+06 3.41392
3.75000E+06 3.41098
3.80806E+06 3.40365
3.80896E+06 3.40354
3.80896E+06 3.40353
3.84288E+06 3.39910
3.84330E+06 3.39905
3.84331E+06 3.39904
3.88582E+06 3.39332
3.88582E+06 3.39332
3.88583E+06 3.39332
3.88583E+06 3.39332
3.97212E+06 3.38110
3.97212E+06 3.38110
4.00000E+06 3.37698
4.11929E+06 3.35866
4.11929E+06 3.35865
4.11993E+06 3.35855
4.12588E+06 3.35761
4.12588E+06 3.35761
4.19436E+06 3.34658
4.19436E+06 3.34658
4.25000E+06 3.33734
4.26108E+06 3.33547
4.29061E+06 3.33046
4.29061E+06 3.33046
4.29601E+06 3.32953
4.38332E+06 3.31444
4.38535E+06 3.31409
4.38535E+06 3.31409
4.38917E+06 3.31342
4.38918E+06 3.31342
4.50000E+06 3.29361
4.51276E+06 3.29129
4.51626E+06 3.29065
4.51626E+06 3.29065
4.58159E+06 3.27862
4.58167E+06 3.27860
4.58167E+06 3.27860
4.66963E+06 3.26217
4.66963E+06 3.26217
4.66993E+06 3.26212
4.75000E+06 3.24700
4.93222E+06 3.21180
4.93222E+06 3.21180
4.94195E+06 3.20989
4.94217E+06 3.20984
4.94217E+06 3.20984
4.96961E+06 3.20444
4.96961E+06 3.20444
4.98641E+06 3.20112
4.98641E+06 3.20112
5.00000E+06 3.19843
5.03638E+06 3.19121
5.03638E+06 3.19121
5.03639E+06 3.19121
5.03802E+06 3.19089
5.03802E+06 3.19089
5.05487E+06 3.18754
5.05487E+06 3.18754
5.05515E+06 3.18748
5.05733E+06 3.18705
5.05733E+06 3.18705
5.09616E+06 3.17932
5.09616E+06 3.17932
5.10960E+06 3.17664
5.10972E+06 3.17662
5.10972E+06 3.17661
5.11576E+06 3.17541
5.14599E+06 3.16938
5.14599E+06 3.16938
5.19314E+06 3.15994
5.19314E+06 3.15994
5.19715E+06 3.15914
5.19715E+06 3.15914
5.28333E+06 3.14185
5.28334E+06 3.14185
5.50000E+06 3.09822
6.00000E+06 2.99735
6.33011E+06 2.93190
6.33011E+06 2.93190
6.50000E+06 2.89874
7.00000E+06 2.80438
7.50000E+06 2.71553
8.00000E+06 2.63297
8.06275E+06 2.62307
8.06275E+06 2.62307
8.50000E+06 2.55704
8.61540E+06 2.54050
8.61540E+06 2.54050
9.00000E+06 2.48784
9.50000E+06 2.42526
9.71091E+06 2.40079
9.71901E+06 2.39988
9.76741E+06 2.39444
9.76741E+06 2.39444
9.76741E+06 2.39444
1.00000E+07 2.36908
1.00606E+07 2.36267
1.00606E+07 2.36267
1.05000E+07 2.31899
1.05924E+07 2.31036
1.05925E+07 2.31035
1.06370E+07 2.30627
1.06370E+07 2.30626
1.06370E+07 2.30626
1.06370E+07 2.30626
1.09765E+07 2.27661
1.09765E+07 2.27661
1.10000E+07 2.27465
1.10301E+07 2.27215
1.10302E+07 2.27214
1.10302E+07 2.27214
1.15000E+07 2.23569
1.16758E+07 2.22320
1.16758E+07 2.22320
1.16758E+07 2.22320
1.17246E+07 2.21984
1.18686E+07 2.21021
1.18686E+07 2.21021
1.18686E+07 2.21021
1.18686E+07 2.21021
1.19895E+07 2.20241
1.20000E+07 2.20175
1.20553E+07 2.19828
1.20553E+07 2.19828
1.21062E+07 2.19514
1.21062E+07 2.19514
1.24722E+07 2.17395
1.24722E+07 2.17395
1.24900E+07 2.17297
1.25000E+07 2.17243
1.26856E+07 2.16265
1.26858E+07 2.16264
1.26858E+07 2.16264
1.26859E+07 2.16264
1.27252E+07 2.16064
1.27252E+07 2.16064
1.27252E+07 2.16064
1.28523E+07 2.15436
1.28523E+07 2.15436
1.30000E+07 2.14738
1.30800E+07 2.14374
1.30800E+07 2.14374
1.30800E+07 2.14374
1.32431E+07 2.13669
1.34907E+07 2.12660
1.35000E+07 2.12624
1.35750E+07 2.12338
1.37186E+07 2.11813
1.37186E+07 2.11813
1.37558E+07 2.11682
1.37558E+07 2.11682
1.38359E+07 2.11405
1.39666E+07 2.10973
1.39829E+07 2.10921
1.39829E+07 2.10921
1.39829E+07 2.10920
1.40000E+07 2.10866
1.40527E+07 2.10700
1.40527E+07 2.10700
1.40742E+07 2.10633
1.41924E+07 2.10278
1.41985E+07 2.10260
1.41985E+07 2.10260
1.41986E+07 2.10260
1.42478E+07 2.10119
1.45000E+07 2.09433
1.50000E+07 2.08293
1.54919E+07 2.07430
1.55000E+07 2.07418
1.60000E+07 2.06781
1.64887E+07 2.06364
1.64887E+07 2.06364
1.65000E+07 2.06356
1.70000E+07 2.06120
1.75000E+07 2.06049
1.80000E+07 2.06124
1.85000E+07 2.06326
1.90000E+07 2.06637
1.94063E+07 2.06958
1.94063E+07 2.06958
1.95000E+07 2.07041
2.00000E+07 2.07524