Ca-48(n,g) ENDF/B-VII.1
Energy(eV) XS(b)
1.00000E-05 54.9612
1.25000E-05 49.1588
1.50000E-05 44.8756
2.00000E-05 38.8635
2.75000E-05 33.1429
3.50000E-05 29.3780
4.25000E-05 26.6601
5.00000E-05 24.5794
6.25000E-05 21.9845
7.50000E-05 20.0690
0.000100000 17.3803
0.000125000 15.5454
0.000150000 14.1909
0.000200000 12.2897
0.000275000 10.4807
0.000350000 9.29014
0.000425000 8.43066
0.000500000 7.77269
0.000625000 6.95210
0.000750000 6.34637
0.00100000 5.49612
0.00125000 4.91588
0.00150000 4.48756
0.00200000 3.88634
0.00275000 3.31428
0.00350000 2.93780
0.00425000 2.66601
0.00500000 2.45794
0.00625000 2.19845
0.00750000 2.00690
0.0100000 1.73802
0.0125000 1.55453
0.0150000 1.41909
0.0200000 1.22897
0.0253000 1.09268
0.0314750 0.979649
0.0376500 0.895716
0.0500000 0.777261
0.0625000 0.695202
0.0750000 0.634628
0.100000 0.549601
0.125000 0.491576
0.150000 0.448743
0.200000 0.388619
0.275000 0.331410
0.350000 0.293759
0.500000 0.245769
0.750000 0.200660
1.00000 0.173768
1.50000 0.141867
2.00000 0.122848
2.75000 0.104749
3.50000 0.0928363
5.00000 0.0776491
7.50000 0.0633686
10.0000 0.0548514
15.0000 0.0447412
20.0000 0.0387083
27.5000 0.0329612
35.0000 0.0291733
50.0000 0.0243352
75.0000 0.0197711
100.000 0.0170375
150.000 0.0137743
200.000 0.0118121
275.000 0.00992678
350.000 0.00867200
500.000 0.00704956
750.000 0.00549118
1000.00 0.00454168
1500.00 0.00339267
2000.00 0.00269830
2750.00 0.00203828
3500.00 0.00161153
5000.00 0.00109210
7500.00 0.000655140
10000.0 0.000434421
12500.0 0.000307041
15000.0 0.000227065
20000.0 0.000136609
23750.0 9.90870E-05
27500.0 7.46223E-05
35000.0 4.59928E-05
42500.0 3.07209E-05
50000.0 2.17409E-05
62500.0 1.34050E-05
75000.0 8.99541E-06
87500.0 6.43353E-06
100000 4.85143E-06
115276 3.68465E-06
130553 3.12283E-06
138191 3.14960E-06
145829 3.78567E-06
149648 4.86920E-06
151557 5.98775E-06
153467 8.04005E-06
155377 1.23734E-05
156331 1.65948E-05
157286 2.40703E-05
158241 3.92315E-05
158718 5.34537E-05
159196 7.76518E-05
159673 0.000123804
159912 0.000164339
160150 0.000228589
160270 0.000275712
160389 0.000338674
160508 0.000425290
160568 0.000481137
160628 0.000548097
160687 0.000629407
160747 0.000728959
160807 0.000852066
160866 0.00100550
160926 0.00119904
160986 0.00144380
161045 0.00175457
161105 0.00214399
161179 0.00274331
161253 0.00342656
161400 0.00427723
161474 0.00402288
161548 0.00341843
161695 0.00213616
161832 0.00135725
161970 0.000903650
162107 0.000633965
162245 0.000465507
162519 0.000278590
162794 0.000184319
163069 0.000130721
163343 9.75311E-05
163893 6.03942E-05
164442 4.12384E-05
164992 3.01069E-05
165541 2.30763E-05
166091 1.83562E-05
167189 1.26106E-05
168288 9.37956E-06
170486 6.06226E-06
172684 4.47503E-06
174882 3.58989E-06
179277 2.67920E-06
188068 1.98212E-06
196859 1.71416E-06
214441 1.53364E-06
232023 1.56968E-06
249604 1.82584E-06
258395 2.10333E-06
267186 2.59708E-06
275977 3.59442E-06
280373 4.53816E-06
284768 6.18300E-06
289164 9.48680E-06
291361 1.25807E-05
293559 1.78612E-05
295757 2.80097E-05
296856 3.70107E-05
297955 5.14341E-05
299054 7.65591E-05
300152 0.000125612
300702 0.000169139
301251 0.000237612
301801 0.000350198
302350 0.000538184
302975 0.000861888
303600 0.00107506
304225 0.000855826
304850 0.000533886
305590 0.000302767
306329 0.000186344
307069 0.000124292
307809 8.83631E-05
308549 6.59974E-05
309288 5.12354E-05
310768 3.36868E-05
312247 2.41105E-05
313726 1.83486E-05
316685 1.21051E-05
319644 9.02101E-06
322603 7.31990E-06
328520 5.73023E-06
334438 5.21929E-06
340355 5.23702E-06
352190 6.35923E-06
364025 9.37536E-06
369943 1.23374E-05
375860 1.74987E-05
381778 2.77623E-05
384736 3.72804E-05
387695 5.34041E-05
390654 8.41788E-05
392133 0.000111364
393613 0.000154836
395092 0.000230471
396571 0.000378191
397311 0.000509439
398051 0.000716375
398790 0.00105778
399530 0.00163042
400365 0.00261243
401200 0.00326086
402035 0.00259542
402870 0.00161963
403616 0.00105027
404363 0.000713034
405109 0.000509767
405855 0.000381774
407348 0.000240271
408840 0.000172509
410333 0.000142838
411825 0.000150080
412571 0.000184146
413318 0.000288634
413691 0.000423600
413877 0.000546300
414064 0.000746446
414250 0.00110313
414437 0.00182184
414530 0.00248114
414624 0.00355416
414717 0.00540115
414810 0.00865992
414905 0.0138103
415000 0.0172344
415095 0.0137986
415190 0.00864981
415254 0.00623122
415318 0.00458899
415445 0.00270691
415573 0.00176158
415700 0.00123518
415828 0.000915991
415956 0.000709113
416211 0.000467256
416466 0.000336898
416721 0.000258797
417231 0.000173626
417742 0.000130391
418252 0.000105274
419273 7.84183E-05
421314 5.72688E-05
423355 4.97931E-05
427438 4.84784E-05
431520 5.86102E-05
435603 8.50499E-05
437644 0.000110351
439685 0.000152165
441726 0.000226882
443768 0.000376904
444788 0.000513479
445809 0.000733804
446829 0.00110833
447850 0.00175951
448925 0.00281570
450000 0.00350896
451075 0.00279287
452150 0.00174212
452898 0.00123753
453645 0.000900508
454393 0.000675296
455141 0.000521228
456636 0.000333994
458131 0.000230826
459627 0.000168690
461122 0.000128599
464113 8.19163E-05
467103 5.68663E-05
470094 4.18955E-05
476075 2.56313E-05
482056 1.74222E-05
488038 1.26872E-05
494019 9.69733E-06
500000 7.68198E-06
500000 0.000144234
550000 0.000139917
600000 0.000136089
650000 0.000133651
700000 0.000131432
750000 0.000130255
800000 0.000129164
850000 0.000128894
900000 0.000128640
950000 0.000129059
1.00000E+06 0.000129458
1.10000E+06 0.000131923
1.20000E+06 0.000134214
1.30000E+06 0.000138334
1.40000E+06 0.000142261
1.50000E+06 0.000147780
1.60000E+06 0.000153136
1.70000E+06 0.000159968
1.80000E+06 0.000166688
1.90000E+06 0.000174821
2.00000E+06 0.000182904
2.10000E+06 0.000192492
2.20000E+06 0.000202102
2.30000E+06 0.000213209
2.40000E+06 0.000224414
2.50000E+06 0.000237195
2.60000E+06 0.000250159
2.70000E+06 0.000264782
2.80000E+06 0.000279682
2.90000E+06 0.000296301
3.00000E+06 0.000313293
3.10000E+06 0.000332240
3.20000E+06 0.000351677
3.30000E+06 0.000373349
3.40000E+06 0.000395650
3.50000E+06 0.000420436
3.60000E+06 0.000446010
3.70000E+06 0.000474362
3.80000E+06 0.000503687
3.90000E+06 0.000480638
3.91232E+06 0.000477912
4.00000E+06 0.000459187
4.20000E+06 0.000423372
4.37343E+06 0.000416310
4.40000E+06 0.000415263
4.59807E+06 0.000398761
4.60000E+06 0.000398607
4.60176E+06 0.000397359
4.60176E+06 0.000397357
4.70901E+06 0.000328955
4.70901E+06 0.000328953
4.80000E+06 0.000281178
5.00000E+06 0.000263578
5.20000E+06 0.000255638
5.25384E+06 0.000252183
5.37126E+06 0.000244926
5.40000E+06 0.000243205
5.42315E+06 0.000236201
5.42316E+06 0.000236199
5.42578E+06 0.000235420
5.48279E+06 0.000219197
5.48279E+06 0.000219196
5.57587E+06 0.000195385
5.57587E+06 0.000195385
5.60000E+06 0.000189706
5.80000E+06 0.000175673
5.84985E+06 0.000173275
6.00000E+06 0.000166364
6.20000E+06 0.000159889
6.23324E+06 0.000159114
6.23324E+06 0.000159114
6.40000E+06 0.000155341
6.47009E+06 0.000153292
6.47009E+06 0.000153292
6.47847E+06 0.000153050
6.47848E+06 0.000153050
6.60000E+06 0.000149621
6.61630E+06 0.000150821
6.61631E+06 0.000150821
6.75333E+06 0.000161169
6.78885E+06 0.000163929
6.80000E+06 0.000164802
6.82643E+06 0.000164046
6.82643E+06 0.000164046
6.93436E+06 0.000161026
7.00000E+06 0.000159238
7.20000E+06 0.000156784
7.40000E+06 0.000149569
7.60000E+06 0.000151829
7.80000E+06 0.000146699
8.00000E+06 0.000140537
8.50000E+06 0.000140266
9.00000E+06 0.000143622
9.03514E+06 0.000144413
9.50000E+06 0.000154992
1.00000E+07 0.000174233
1.01556E+07 0.000182687
1.05000E+07 0.000202372
1.07301E+07 0.000220430
1.10000E+07 0.000243114
1.15000E+07 0.000300093
1.15060E+07 0.000300916
1.15458E+07 0.000306418
1.19031E+07 0.000359562
1.20000E+07 0.000375191
1.21380E+07 0.000399698
1.23535E+07 0.000440580
1.23626E+07 0.000442379
1.25000E+07 0.000470280
1.30000E+07 0.000584285
1.35000E+07 0.000711123
1.36899E+07 0.000758820
1.36899E+07 0.000758830
1.38680E+07 0.000805801
1.40000E+07 0.000842070
1.42345E+07 0.000898434
1.42346E+07 0.000898449
1.45000E+07 0.000965583
1.46800E+07 0.00100345
1.50000E+07 0.00107323
1.55000E+07 0.00115721
1.59304E+07 0.00123237
1.59305E+07 0.00123239
1.60000E+07 0.00124478
1.60040E+07 0.00124515
1.60040E+07 0.00124516
1.61393E+07 0.00125782
1.65000E+07 0.00129168
1.66037E+07 0.00130144
1.66038E+07 0.00130145
1.67094E+07 0.00131140
1.69081E+07 0.00133017
1.70000E+07 0.00133886
1.72884E+07 0.00132789
1.72885E+07 0.00132788
1.73721E+07 0.00132475
1.73722E+07 0.00132475
1.74027E+07 0.00132361
1.74027E+07 0.00132361
1.75000E+07 0.00132001
1.75847E+07 0.00131689
1.75848E+07 0.00131689
1.76662E+07 0.00131392
1.76663E+07 0.00131392
1.77790E+07 0.00130983
1.80000E+07 0.00130194
1.85000E+07 0.00122815
1.90000E+07 0.00116035
1.95000E+07 0.00106649
2.00000E+07 0.000982324
2.00000E+07 0.00000
2.10000E+07 0.00000
2.20000E+07 0.00000
2.30000E+07 0.00000
2.40000E+07 0.00000
2.50000E+07 0.00000
2.60000E+07 0.00000
2.70000E+07 0.00000
2.80000E+07 0.00000
2.90000E+07 0.00000
3.00000E+07 0.00000
3.10000E+07 0.00000
3.20000E+07 0.00000
3.30000E+07 0.00000
3.40000E+07 0.00000
3.50000E+07 0.00000
3.60000E+07 0.00000
3.70000E+07 0.00000
3.80000E+07 0.00000
3.90000E+07 0.00000
4.00000E+07 0.00000
4.10000E+07 0.00000
4.20000E+07 0.00000
4.30000E+07 0.00000
4.40000E+07 0.00000
4.50000E+07 0.00000
4.60000E+07 0.00000
4.70000E+07 0.00000
4.80000E+07 0.00000
4.90000E+07 0.00000
5.00000E+07 0.00000
5.10000E+07 0.00000
5.20000E+07 0.00000
5.30000E+07 0.00000
5.40000E+07 0.00000
5.50000E+07 0.00000
5.60000E+07 0.00000
5.70000E+07 0.00000
5.80000E+07 0.00000
5.90000E+07 0.00000
6.00000E+07 0.00000
6.10000E+07 0.00000
6.20000E+07 0.00000
6.30000E+07 0.00000
6.40000E+07 0.00000
6.50000E+07 0.00000
6.60000E+07 0.00000
6.70000E+07 0.00000
6.80000E+07 0.00000
6.90000E+07 0.00000
7.00000E+07 0.00000
7.10000E+07 0.00000
7.20000E+07 0.00000
7.30000E+07 0.00000
7.40000E+07 0.00000
7.50000E+07 0.00000
7.60000E+07 0.00000
7.70000E+07 0.00000
7.80000E+07 0.00000
7.90000E+07 0.00000
8.00000E+07 0.00000
8.10000E+07 0.00000
8.20000E+07 0.00000
8.30000E+07 0.00000
8.40000E+07 0.00000
8.50000E+07 0.00000
8.60000E+07 0.00000
8.70000E+07 0.00000
8.80000E+07 0.00000
8.90000E+07 0.00000
9.00000E+07 0.00000
9.10000E+07 0.00000
9.20000E+07 0.00000
9.30000E+07 0.00000
9.40000E+07 0.00000
9.50000E+07 0.00000
9.60000E+07 0.00000
9.70000E+07 0.00000
9.80000E+07 0.00000
9.90000E+07 0.00000
1.00000E+08 0.00000
1.02000E+08 0.00000
1.04000E+08 0.00000
1.06000E+08 0.00000
1.08000E+08 0.00000
1.10000E+08 0.00000
1.12000E+08 0.00000
1.14000E+08 0.00000
1.16000E+08 0.00000
1.18000E+08 0.00000
1.20000E+08 0.00000
1.22000E+08 0.00000
1.24000E+08 0.00000
1.26000E+08 0.00000
1.28000E+08 0.00000
1.30000E+08 0.00000
1.32000E+08 0.00000
1.34000E+08 0.00000
1.36000E+08 0.00000
1.38000E+08 0.00000
1.40000E+08 0.00000
1.42000E+08 0.00000
1.44000E+08 0.00000
1.46000E+08 0.00000
1.48000E+08 0.00000
1.50000E+08 0.00000
1.52000E+08 0.00000
1.54000E+08 0.00000
1.56000E+08 0.00000
1.58000E+08 0.00000
1.60000E+08 0.00000
1.62000E+08 0.00000
1.64000E+08 0.00000
1.66000E+08 0.00000
1.68000E+08 0.00000
1.70000E+08 0.00000
1.72000E+08 0.00000
1.74000E+08 0.00000
1.76000E+08 0.00000
1.78000E+08 0.00000
1.80000E+08 0.00000
1.82000E+08 0.00000
1.84000E+08 0.00000
1.86000E+08 0.00000
1.88000E+08 0.00000
1.90000E+08 0.00000
1.92000E+08 0.00000
1.94000E+08 0.00000
1.96000E+08 0.00000
1.98000E+08 0.00000
2.00000E+08 0.00000