V-50(n,g) ENDF/B-VII.1
Energy(eV) XS(b)
1.00000E-05 2246.97
1.25000E-05 2009.75
1.50000E-05 1834.64
2.00000E-05 1588.85
2.75000E-05 1354.98
3.50000E-05 1201.06
4.25000E-05 1089.94
5.00000E-05 1004.88
6.25000E-05 898.789
7.50000E-05 820.478
0.000100000 710.555
0.000125000 635.540
0.000150000 580.166
0.000200000 502.438
0.000275000 428.481
0.000350000 379.808
0.000425000 344.670
0.000500000 317.770
0.000625000 284.222
0.000750000 259.458
0.00100000 224.697
0.00125000 200.975
0.00150000 183.465
0.00200000 158.885
0.00275000 135.498
0.00350000 120.106
0.00425000 108.995
0.00500000 100.488
0.00625000 89.8793
0.00750000 82.0483
0.0100000 71.0561
0.0125000 63.5547
0.0150000 58.0173
0.0200000 50.2447
0.0253000 44.6732
0.0314750 40.0523
0.0376500 36.6210
0.0500000 31.7784
0.0625000 28.4238
0.0750000 25.9476
0.100000 22.4718
0.125000 20.0999
0.150000 18.3490
0.200000 15.8915
0.275000 13.5532
0.350000 12.0145
0.500000 10.0535
0.750000 8.21066
1.00000 7.11239
1.50000 5.81015
2.00000 5.03431
2.75000 4.29668
3.50000 3.81172
5.00000 3.19461
7.50000 2.61656
10.0000 2.27386
15.0000 1.87150
20.0000 1.63631
27.5000 1.42023
35.0000 1.28709
50.0000 1.14501
75.0000 1.11566
100.000 1.35970
116.313 1.86113
124.469 2.37677
132.625 3.31388
136.703 4.09377
140.781 5.26693
144.859 7.14807
148.938 10.4453
150.977 13.1156
153.016 17.0395
155.055 23.1430
157.094 33.3899
159.133 52.5492
160.152 69.0408
161.172 94.6504
162.192 137.278
163.211 214.883
163.721 278.940
164.231 372.769
164.740 513.525
165.250 724.403
165.975 1154.82
166.700 1435.76
166.700 1435.75
166.700 1435.75
166.701 1435.75
166.701 1435.74
166.702 1435.74
166.703 1435.72
166.706 1435.67
166.712 1435.54
166.723 1435.15
166.746 1433.84
166.791 1429.15
166.881 1411.71
167.063 1347.78
167.425 1143.41
168.150 713.186
168.648 508.200
169.145 370.441
169.643 277.939
170.141 214.445
171.136 137.051
172.131 94.3235
173.127 68.5855
174.122 51.9950
176.113 32.7270
178.103 22.4424
180.094 16.3366
182.084 12.4258
184.075 9.77474
188.056 6.51966
192.038 4.67654
196.019 3.53444
200.000 2.77892
207.278 1.93112
214.556 1.44158
229.113 0.926639
243.669 0.674120
258.225 0.530425
275.000 0.428980
312.500 0.308876
350.000 0.248072
400.000 0.201417
500.000 0.152298
600.000 0.126808
700.000 0.112981
750.000 0.109291
812.500 0.107528
875.000 0.109240
937.500 0.115325
1000.00 0.127656
1046.84 0.143159
1093.68 0.167247
1140.51 0.205575
1187.35 0.269669
1210.77 0.318507
1234.19 0.385823
1257.61 0.481707
1281.03 0.623911
1304.44 0.845523
1327.86 1.21177
1351.28 1.85559
1374.70 3.02155
1397.35 4.76456
1420.00 5.82813
1442.65 4.57154
1465.30 2.83438
1482.01 1.96999
1498.72 1.40925
1515.43 1.04361
1532.14 0.798328
1565.56 0.506462
1598.98 0.349078
1632.39 0.255704
1665.81 0.196116
1732.65 0.127456
1799.49 0.0909303
1866.33 0.0691581
2000.00 0.0453955
2187.50 0.0298503
2375.00 0.0219803
2750.00 0.0142452
3125.00 0.0105324
3500.00 0.00845673
4000.00 0.00699478
4500.00 0.00653759
5000.00 0.00723660
5289.90 0.00873769
5434.85 0.0102101
5579.80 0.0127452
5724.75 0.0176891
5797.23 0.0222029
5869.70 0.0297677
5942.18 0.0440707
5978.41 0.0566388
6014.65 0.0766820
6050.89 0.111493
6087.13 0.179448
6105.24 0.239870
6123.36 0.335254
6141.48 0.492904
6159.60 0.757788
6179.80 1.20455
6200.00 1.49744
6220.20 1.19500
6240.40 0.749102
6252.27 0.562574
6264.14 0.429668
6276.01 0.335542
6287.88 0.268026
6311.61 0.181780
6335.35 0.131945
6359.09 0.101075
6382.83 0.0808700
6406.56 0.0670659
6430.30 0.0573241
6454.04 0.0502824
6477.78 0.0451106
6525.25 0.0384470
6572.73 0.0349080
6620.20 0.0333711
6667.68 0.0333018
6715.15 0.0344738
6762.63 0.0368555
6810.10 0.0405732
6857.58 0.0459190
6905.05 0.0533990
6952.53 0.0638311
7000.00 0.0785110
7074.05 0.115019
7148.10 0.179460
7224.05 0.280855
7300.00 0.344839
7376.00 0.274043
7452.00 0.173501
7543.25 0.101684
7634.50 0.0671482
7725.75 0.0508558
7817.00 0.0447884
7908.25 0.0473138
7953.88 0.0528951
7999.50 0.0633094
8022.31 0.0713290
8045.13 0.0821644
8067.94 0.0969924
8090.75 0.117648
8113.56 0.147055
8136.38 0.189890
8159.19 0.253397
8182.00 0.347096
8199.00 0.440233
8216.00 0.546297
8250.00 0.676012
8267.00 0.634704
8284.00 0.539436
8318.00 0.339268
8344.28 0.234367
8370.56 0.167332
8396.84 0.124218
8423.13 0.0955826
8475.69 0.0617838
8528.25 0.0436210
8580.81 0.0328113
8633.38 0.0258629
8738.50 0.0177411
8843.63 0.0133202
8948.75 0.0106280
9159.00 0.00763373
9369.25 0.00610817
9579.50 0.00527546
10000.0 0.00471398
10060.7 0.00472483
10256.5 0.00491945
10452.3 0.00540809
10648.1 0.00633095
10843.9 0.00800289
10941.8 0.00932243
11039.6 0.0111765
11088.6 0.0123907
11137.5 0.0138664
11186.5 0.0156794
11235.4 0.0179341
11284.4 0.0207789
11333.3 0.0244239
11382.3 0.0291753
11431.2 0.0354837
11480.2 0.0440235
11529.1 0.0557808
11578.1 0.0721435
11627.0 0.0947183
11713.5 0.149750
11800.0 0.184975
11843.3 0.173287
11886.5 0.146935
11973.0 0.0919896
12065.9 0.0552032
12158.7 0.0355013
12251.5 0.0245233
12344.4 0.0179807
12530.1 0.0110637
12715.8 0.00776006
12901.4 0.00598680
13087.1 0.00497963
13458.5 0.00415389
13829.9 0.00438911
14015.6 0.00499076
14201.3 0.00618875
14386.9 0.00863687
14479.8 0.0108632
14572.6 0.0145119
14665.5 0.0211490
14711.9 0.0267641
14758.3 0.0354236
14804.7 0.0498716
14828.0 0.0610395
14851.2 0.0767227
14874.4 0.0996061
14897.6 0.134420
14920.8 0.189452
14944.0 0.277341
14972.0 0.433285
15000.0 0.536881
15028.5 0.435972
15057.0 0.286767
15076.8 0.217962
15096.5 0.175031
15136.0 0.137932
15175.5 0.141341
15195.3 0.155685
15215.0 0.178964
15257.5 0.256036
15300.0 0.307096
15342.5 0.244451
15385.0 0.155147
15418.5 0.107546
15452.0 0.0772165
15485.5 0.0576916
15518.9 0.0446857
15585.9 0.0292224
15652.9 0.0208204
15719.9 0.0157744
15786.8 0.0125141
15920.8 0.00871169
16054.7 0.00669209
16188.6 0.00553688
16456.5 0.00453555
16724.4 0.00466309
16858.3 0.00522716
16992.3 0.00640661
17126.2 0.00887988
17193.2 0.0111453
17260.1 0.0148331
17293.6 0.0175941
17310.4 0.0193211
17327.1 0.0213493
17343.9 0.0237521
17360.6 0.0266203
17377.3 0.0300791
17394.1 0.0342939
17410.8 0.0394920
17427.6 0.0459741
17444.3 0.0541665
17461.0 0.0646577
17477.8 0.0782619
17494.5 0.0960808
17511.3 0.119511
17528.0 0.150031
17546.0 0.191517
17564.0 0.238912
17600.0 0.297687
17618.0 0.279792
17636.0 0.237656
17672.0 0.148822
17708.4 0.0917321
17744.8 0.0600419
17781.1 0.0418844
17817.5 0.0308417
17890.3 0.0189114
17963.0 0.0130509
18035.8 0.00978646
18108.5 0.00780358
18254.0 0.00566285
18399.5 0.00465133
18545.0 0.00416412
18836.0 0.00398775
19127.0 0.00454004
19418.0 0.00600338
19563.5 0.00733761
19709.0 0.00941848
19854.5 0.0128346
20000.0 0.0188512
20127.0 0.0283921
20254.0 0.0456817
20377.0 0.0718263
20500.0 0.0887629
20623.0 0.0710166
20746.0 0.0451969
20842.7 0.0316093
20939.4 0.0231125
21036.1 0.0178161
21132.8 0.0144653
21326.1 0.0110174
21519.5 0.0100197
21712.9 0.0107549
21809.6 0.0118331
21906.3 0.0135461
22002.9 0.0161346
22099.6 0.0199886
22196.3 0.0257004
22293.0 0.0340186
22369.8 0.0427721
22446.5 0.0527429
22600.0 0.0647528
22676.8 0.0606742
22753.5 0.0515400
22907.0 0.0325172
23081.2 0.0192596
23255.4 0.0123857
23429.6 0.00864754
23603.8 0.00646278
23952.1 0.00423762
24300.5 0.00332910
24648.9 0.00317113
24823.1 0.00340386
24997.3 0.00399509
25171.4 0.00531070
25258.5 0.00652880
25345.6 0.00850133
25432.7 0.0119314
25519.8 0.0185295
25563.4 0.0242685
25606.9 0.0331017
25650.5 0.0472076
25694.0 0.0699222
25747.0 0.111026
25800.0 0.138151
25853.0 0.110414
25906.0 0.0693048
25952.0 0.0457002
25998.0 0.0314498
26044.0 0.0227218
26090.0 0.0171441
26182.0 0.0108236
26274.0 0.00757190
26366.0 0.00570249
26458.0 0.00453845
26642.0 0.00324194
26826.0 0.00259832
27010.0 0.00226459
27378.0 0.00208663
27746.0 0.00242123
27930.0 0.00286922
28114.0 0.00368161
28298.0 0.00523684
28390.0 0.00657027
28482.0 0.00861247
28574.0 0.0119288
28620.0 0.0143987
28666.0 0.0177291
28712.0 0.0223217
28758.0 0.0287913
28804.0 0.0380395
28850.0 0.0511818
28887.5 0.0652342
28925.0 0.0812365
29000.0 0.100962
29037.5 0.0949035
29075.0 0.0806863
29150.0 0.0506405
29203.1 0.0359260
29256.3 0.0261581
29309.4 0.0196693
29362.5 0.0152547
29468.8 0.00992406
29575.0 0.00700889
29681.3 0.00526490
29787.5 0.00414746
30000.0 0.00286204
30230.8 0.00214870
30461.5 0.00175923
30923.0 0.00141727
31384.5 0.00136586
31846.0 0.00151982
32307.5 0.00194375
32769.0 0.00292521
32999.8 0.00388185
33230.5 0.00551506
33345.9 0.00677554
33461.3 0.00851011
33576.6 0.0109227
33692.0 0.0142516
33794.0 0.0180594
33896.0 0.0223873
34100.0 0.0276645
34202.0 0.0259928
34304.0 0.0221525
34508.0 0.0141370
34645.7 0.0104138
34783.4 0.00793107
35058.8 0.00521644
35334.1 0.00406897
35609.5 0.00376509
35884.9 0.00416848
36160.3 0.00562996
36297.9 0.00712396
36435.6 0.00961971
36573.3 0.0139383
36642.2 0.0172093
36711.0 0.0215080
36855.5 0.0337569
37000.0 0.0417556
37144.5 0.0333459
37289.0 0.0210290
37458.4 0.0122280
37627.9 0.00776563
37797.3 0.00538167
37966.8 0.00400671
38305.6 0.00262273
38644.5 0.00205065
38983.4 0.00188276
39322.3 0.00205130
39661.1 0.00274232
39830.6 0.00348810
40000.0 0.00480657
40111.8 0.00626037
40223.5 0.00856769
40335.3 0.0123811
40447.0 0.0187640
40510.3 0.0238658
40573.5 0.0296845
40700.0 0.0368466
40826.5 0.0294068
40953.0 0.0184526
41049.7 0.0127643
41146.4 0.00911308
41243.1 0.00675639
41339.8 0.00518735
41533.1 0.00333137
41726.5 0.00233295
41919.9 0.00173888
42113.3 0.00135737
42500.0 0.000912046
42500.0 0.0166791
50000.0 0.0140040
51949.9 0.0137420
60000.0 0.0127984
70000.0 0.0113629
80000.0 0.0102778
90000.0 0.00951496
100000 0.00884244
105000 0.00860352
105001 0.00860349
110000 0.00838173
120000 0.00787598
130000 0.00734855
140000 0.00712254
150000 0.00686293
160000 0.00658345
170000 0.00629625
180000 0.00600356
190000 0.00570837
200000 0.00550610
215511 0.00531126
225000 0.00520202
230768 0.00512614
230768 0.00512613
230840 0.00512100
230912 0.00511587
231057 0.00510555
231201 0.00509533
231346 0.00508507
231636 0.00506462
231926 0.00504428
232216 0.00502405
232507 0.00500386
233089 0.00496379
233673 0.00492400
234258 0.00488456
235433 0.00480659
236614 0.00472987
237801 0.00465436
240192 0.00450699
242607 0.00436429
245047 0.00422607
250000 0.00396266
275000 0.00349234
300000 0.00316058
326626 0.00293967
344602 0.00260059
362577 0.00231501
362577 0.00231501
373423 0.00222499
395868 0.00205692
396244 0.00205429
397898 0.00206010
400000 0.00206748
500000 0.00171136
551060 0.00161425
570321 0.00158128
600000 0.00153381
647142 0.00147712
660506 0.00146216
700000 0.00142049
800000 0.00134321
800000 0.00134321
800000 0.00134321
853189 0.00132325
893002 0.00125838
898522 0.00124986
899844 0.00124784
900000 0.00124760
928377 0.00124360
928377 0.00124357
928479 0.00122645
928479 0.00122645
979419 0.00106660
1.00000E+06 0.00101016
1.00738E+06 0.00100266
1.00798E+06 0.00100205
1.06165E+06 0.000950695
1.06206E+06 0.000950323
1.10000E+06 0.000917090
1.12235E+06 0.000904370
1.14387E+06 0.000892521
1.18295E+06 0.000871942
1.18315E+06 0.000871839
1.20000E+06 0.000863320
1.20843E+06 0.000860297
1.20897E+06 0.000860104
1.27048E+06 0.000838979
1.30000E+06 0.000829377
1.30000E+06 0.000829377
1.30000E+06 0.000829377
1.32768E+06 0.000831441
1.32768E+06 0.000831440
1.34909E+06 0.000822807
1.35839E+06 0.000819127
1.40000E+06 0.000804552
1.41933E+06 0.000806342
1.43021E+06 0.000807341
1.43021E+06 0.000807340
1.45125E+06 0.000800047
1.47982E+06 0.000790413
1.50000E+06 0.000783788
1.50482E+06 0.000784996
1.52550E+06 0.000790158
1.52952E+06 0.000789137
1.54906E+06 0.000784232
1.54907E+06 0.000784231
1.57981E+06 0.000777638
1.59324E+06 0.000774815
1.60000E+06 0.000773454
1.62061E+06 0.000771753
1.70000E+06 0.000765432
1.71107E+06 0.000763596
1.71107E+06 0.000763596
1.73453E+06 0.000769465
1.73454E+06 0.000769466
1.73454E+06 0.000769467
1.73749E+06 0.000767297
1.73749E+06 0.000767291
1.75361E+06 0.000744359
1.75361E+06 0.000744357
1.75943E+06 0.000740910
1.76004E+06 0.000732211
1.76004E+06 0.000732209
1.78687E+06 0.000691493
1.78687E+06 0.000691491
1.79707E+06 0.000683435
1.79707E+06 0.000683418
1.79789E+06 0.000679921
1.80000E+06 0.000675823
1.83889E+06 0.000652964
1.84737E+06 0.000648146
1.90000E+06 0.000622685
1.92041E+06 0.000614517
1.92042E+06 0.000614515
1.93145E+06 0.000610874
1.97510E+06 0.000596875
1.97972E+06 0.000595242
1.99197E+06 0.000590952
1.99346E+06 0.000590434
1.99346E+06 0.000590434
2.00000E+06 0.000588307
2.07916E+06 0.000576878
2.07917E+06 0.000576854
2.15363E+06 0.000567178
2.15363E+06 0.000567178
2.17608E+06 0.000562070
2.18070E+06 0.000561073
2.20566E+06 0.000555751
2.20566E+06 0.000555751
2.24301E+06 0.000552837
2.24803E+06 0.000552451
2.25000E+06 0.000552299
2.35461E+06 0.000540279
2.35930E+06 0.000539435
2.35930E+06 0.000539434
2.39134E+06 0.000525822
2.39596E+06 0.000525376
2.44076E+06 0.000521113
2.44745E+06 0.000520486
2.46840E+06 0.000511128
2.47295E+06 0.000509128
2.47295E+06 0.000509127
2.47397E+06 0.000508800
2.47397E+06 0.000508799
2.50000E+06 0.000502765
2.50280E+06 0.000502321
2.50458E+06 0.000502039
2.52835E+06 0.000497460
2.53314E+06 0.000492814
2.53314E+06 0.000492813
2.59184E+06 0.000478865
2.61202E+06 0.000474233
2.62449E+06 0.000471410
2.62551E+06 0.000471181
2.66529E+06 0.000462383
2.69896E+06 0.000455164
2.75000E+06 0.000444601
2.76204E+06 0.000449046
2.78466E+06 0.000457464
2.83975E+06 0.000478333
2.85607E+06 0.000484616
2.86423E+06 0.000487775
2.87597E+06 0.000492339
2.90729E+06 0.000504634
2.95095E+06 0.000522056
3.00000E+06 0.000542026
3.50000E+06 0.000459302
4.00000E+06 0.000406991
4.50000E+06 0.000376531
5.00000E+06 0.000361789
5.50000E+06 0.000356935
5.74456E+06 0.000356868
5.84282E+06 0.000356841
6.00000E+06 0.000356800
6.24500E+06 0.000361972
6.50000E+06 0.000367219
6.74537E+06 0.000376184
7.00000E+06 0.000385367
7.25249E+06 0.000398562
7.41611E+06 0.000407101
7.46082E+06 0.000409432
7.48533E+06 0.000410710
7.49852E+06 0.000411398
7.50000E+06 0.000411475
7.60109E+06 0.000418393
7.64041E+06 0.000421090
7.76604E+06 0.000429729
7.76605E+06 0.000429730
7.88513E+06 0.000437951
7.88514E+06 0.000437951
8.00000E+06 0.000445910
8.11231E+06 0.000455362
8.14978E+06 0.000458531
8.36413E+06 0.000476797
8.39783E+06 0.000479690
8.39891E+06 0.000479783
8.40694E+06 0.000480473
8.41381E+06 0.000481064
8.50000E+06 0.000488498
8.56096E+06 0.000494494
8.61836E+06 0.000500167
8.61907E+06 0.000500237
8.76945E+06 0.000515228
8.88351E+06 0.000526721
8.94286E+06 0.000532742
8.94676E+06 0.000533139
9.00000E+06 0.000538566
9.08223E+06 0.000547558
9.16937E+06 0.000557159
9.19956E+06 0.000560503
9.34034E+06 0.000576216
9.36111E+06 0.000578550
9.36111E+06 0.000578551
9.36351E+06 0.000578820
9.38186E+06 0.000580887
9.42472E+06 0.000585727
9.50000E+06 0.000594272
9.52164E+06 0.000596767
9.52446E+06 0.000597093
9.52447E+06 0.000597094
9.53433E+06 0.000598233
9.55531E+06 0.000600660
9.61999E+06 0.000608169
9.66549E+06 0.000613477
9.66855E+06 0.000613834
9.70538E+06 0.000618148
9.70700E+06 0.000618338
9.73792E+06 0.000621970
9.77567E+06 0.000626417
9.83790E+06 0.000633781
9.86514E+06 0.000637016
9.88993E+06 0.000639968
9.91339E+06 0.000642766
1.00000E+07 0.000653146
1.00891E+07 0.000663529
1.01081E+07 0.000665752
1.02360E+07 0.000680803
1.02808E+07 0.000686110
1.05000E+07 0.000712335
1.08238E+07 0.000747674
1.08899E+07 0.000754966
1.10000E+07 0.000767171
1.10551E+07 0.000771033
1.10713E+07 0.000772168
1.11666E+07 0.000778848
1.11927E+07 0.000780677
1.12050E+07 0.000781539
1.13455E+07 0.000791388
1.14559E+07 0.000799127
1.14724E+07 0.000800283
1.15000E+07 0.000802218
1.15402E+07 0.000805765
1.15520E+07 0.000806807
1.15801E+07 0.000809289
1.16249E+07 0.000813250
1.16456E+07 0.000815081
1.16958E+07 0.000819526
1.16961E+07 0.000819552
1.18193E+07 0.000830482
1.18194E+07 0.000830488
1.18827E+07 0.000836118
1.18937E+07 0.000837097
1.19229E+07 0.000839696
1.19254E+07 0.000839919
1.19509E+07 0.000842190
1.19529E+07 0.000842368
1.20000E+07 0.000846567
1.20477E+07 0.000849969
1.20563E+07 0.000850582
1.20611E+07 0.000850924
1.20768E+07 0.000852044
1.21065E+07 0.000854162
1.21641E+07 0.000858270
1.22019E+07 0.000860966
1.22151E+07 0.000861907
1.22355E+07 0.000863362
1.22423E+07 0.000863847
1.22529E+07 0.000864603
1.22590E+07 0.000865039
1.22620E+07 0.000865252
1.23135E+07 0.000868926
1.23284E+07 0.000869989
1.23875E+07 0.000874205
1.24545E+07 0.000878984
1.25000E+07 0.000882230
1.29374E+07 0.000906274
1.29850E+07 0.000908879
1.30000E+07 0.000909700
1.35000E+07 0.000926871
1.40000E+07 0.000935782
1.41496E+07 0.000935451
1.41497E+07 0.000935450
1.45000E+07 0.000934688
1.50000E+07 0.000925911
1.55000E+07 0.000906473
1.60000E+07 0.000878957
1.64191E+07 0.000848347
1.64191E+07 0.000848346
1.65000E+07 0.000842650
1.70000E+07 0.000804000
1.75000E+07 0.000754051
1.80000E+07 0.000703380
1.85000E+07 0.000650099
1.90000E+07 0.000595052
1.95000E+07 0.000540569
2.00000E+07 0.000488947