Fe-58(n,g) ENDF/B-VII.1
Energy(eV) XS(b)
1.00000E-05 58.6038
1.25000E-05 52.3932
1.50000E-05 47.8107
2.00000E-05 41.3816
2.37500E-05 37.9614
2.75000E-05 35.2682
3.50000E-05 31.2472
4.25000E-05 28.3457
5.00000E-05 26.1253
6.25000E-05 23.3572
7.50000E-05 21.3148
0.000100000 18.4492
0.000125000 16.4946
0.000150000 15.0524
0.000200000 13.0289
0.000237500 11.9524
0.000275000 11.1046
0.000350000 9.83895
0.000425000 8.92562
0.000500000 8.22665
0.000625000 7.35526
0.000750000 6.71227
0.00100000 5.81011
0.00125000 5.19473
0.00150000 4.74065
0.00200000 4.10354
0.00237500 3.76458
0.00275000 3.49765
0.00350000 3.09910
0.00425000 2.81150
0.00500000 2.59139
0.00625000 2.31697
0.00750000 2.11448
0.0100000 1.83036
0.0125000 1.63655
0.0150000 1.49353
0.0200000 1.29286
0.0253000 1.14908
0.0314750 1.03052
0.0376500 0.942461
0.0500000 0.818147
0.0625000 0.732001
0.0750000 0.668394
0.100000 0.579082
0.125000 0.518111
0.150000 0.473093
0.200000 0.409881
0.275000 0.349710
0.350000 0.310094
0.414000 0.285191
0.414000 0.285191
0.414001 0.285190
0.414002 0.285190
0.414003 0.285190
0.414005 0.285189
0.414011 0.285187
0.414021 0.285183
0.414042 0.285176
0.414084 0.285162
0.414168 0.285133
0.414336 0.285075
0.414672 0.284960
0.415344 0.284730
0.416688 0.284272
0.419375 0.283362
0.424750 0.281569
0.435500 0.278083
0.457000 0.271482
0.500000 0.259580
0.625000 0.232253
0.750000 0.212075
1.00000 0.183741
1.50000 0.150116
2.00000 0.130061
2.75000 0.110969
3.50000 0.0983996
5.00000 0.0823714
7.50000 0.0672974
10.0000 0.0583073
15.0000 0.0476395
20.0000 0.0412792
27.5000 0.0352285
35.0000 0.0312490
50.0000 0.0261856
75.0000 0.0214530
100.000 0.0186737
133.000 0.0163897
166.000 0.0151152
200.000 0.0160355
207.450 0.0178192
214.900 0.0232331
218.625 0.0308904
220.488 0.0385553
222.350 0.0525290
224.213 0.0821574
225.144 0.111304
226.075 0.163571
226.541 0.206852
227.006 0.271768
227.472 0.375528
227.938 0.556471
228.403 0.914907
228.636 1.24257
228.869 1.78458
229.102 2.77382
229.218 3.60329
229.334 4.85642
229.451 6.86173
229.567 10.3051
229.684 16.7062
229.800 29.2248
229.900 46.6921
230.000 58.3162
230.101 46.6191
230.201 29.1046
230.264 21.3731
230.327 15.9829
230.452 9.60130
230.578 6.28688
230.703 4.40092
230.829 3.24084
230.955 2.48154
231.206 1.58607
231.457 1.10020
231.708 0.808498
232.210 0.491172
232.713 0.331687
233.215 0.240495
233.717 0.183525
234.220 0.145576
235.224 0.0997441
236.229 0.0741772
238.238 0.0481324
240.248 0.0357962
242.257 0.0289918
246.275 0.0221281
254.312 0.0171572
262.350 0.0154538
278.424 0.0145745
294.498 0.0151779
310.572 0.0176481
318.609 0.0204416
326.647 0.0257818
334.684 0.0375436
338.702 0.0494370
342.721 0.0713168
344.730 0.0898648
346.739 0.118319
348.749 0.165182
350.758 0.250487
351.763 0.322176
352.767 0.431288
353.772 0.609218
354.777 0.928581
355.279 1.19333
355.781 1.59088
356.284 2.22740
356.786 3.34023
357.288 5.55316
357.539 7.58604
357.790 10.9643
358.042 17.1796
358.167 22.4333
358.293 30.4276
358.418 43.3739
358.544 65.9719
358.670 109.018
358.732 144.986
358.795 196.001
358.898 313.181
359.000 391.142
359.103 312.650
359.206 195.152
359.275 140.343
359.344 103.149
359.481 60.4228
359.619 38.9288
359.756 26.9500
359.894 19.6848
360.031 14.9769
360.306 9.47737
360.581 6.52277
360.856 4.75927
361.131 3.62457
361.406 2.85226
361.956 1.89907
362.506 1.35578
363.056 1.01720
363.606 0.792109
364.706 0.520760
365.806 0.369695
366.906 0.277025
368.006 0.216116
370.206 0.143530
372.406 0.103553
374.605 0.0792035
376.805 0.0632716
381.205 0.0443595
385.605 0.0339684
394.405 0.0234850
403.204 0.0185256
412.004 0.0157638
429.603 0.0128982
464.802 0.0106077
500.000 0.00960645
625.000 0.00808937
750.000 0.00732300
999.999 0.00638037
1000.00 0.00638037
1000.01 0.00638035
1000.01 0.00638033
1000.03 0.00638029
1000.05 0.00638022
1000.10 0.00638008
1000.20 0.00637979
1000.39 0.00637923
1000.78 0.00637809
1001.56 0.00637581
1003.13 0.00637127
1006.25 0.00636223
1012.50 0.00634428
1025.00 0.00630895
1050.00 0.00624044
1100.00 0.00611132
1200.00 0.00588029
1400.00 0.00550159
1400.00 0.00550158
1400.01 0.00550157
1400.01 0.00550156
1400.03 0.00550154
1400.05 0.00550150
1400.10 0.00550142
1400.20 0.00550126
1400.39 0.00550093
1400.78 0.00550028
1401.56 0.00549898
1403.13 0.00549637
1406.25 0.00549118
1412.50 0.00548086
1425.00 0.00546044
1450.00 0.00542045
1500.00 0.00534378
1625.00 0.00516924
1750.00 0.00501556
2000.00 0.00475738
2000.00 0.00475737
2000.01 0.00475737
2000.01 0.00475736
2000.03 0.00475735
2000.05 0.00475733
2000.10 0.00475728
2000.20 0.00475719
2000.40 0.00475700
2000.80 0.00475664
2001.60 0.00475590
2003.20 0.00475442
2006.41 0.00475148
2012.81 0.00474563
2025.62 0.00473401
2051.24 0.00471115
2102.48 0.00466689
2204.95 0.00458385
2409.90 0.00443726
2614.85 0.00431496
2717.33 0.00427250
2768.56 0.00429991
2794.18 0.00450095
2806.99 0.00533574
2813.40 0.00857875
2816.60 0.0206446
2817.40 0.0322587
2818.20 0.0623314
2818.60 0.0996079
2819.00 0.187556
2819.20 0.284458
2819.40 0.480150
2819.60 0.954232
2819.70 1.46335
2819.80 2.36992
2819.90 3.79694
2820.00 4.73580
2820.10 3.78201
2820.20 2.37008
2820.29 1.54687
2820.38 1.05156
2820.55 0.556409
2820.73 0.338535
2820.90 0.227136
2821.26 0.122563
2821.61 0.0771949
2822.31 0.0398016
2823.01 0.0252041
2825.82 0.00984259
2831.44 0.00566067
2842.68 0.00456511
2865.15 0.00427576
2910.10 0.00418440
3000.00 0.00412708
3000.00 0.00412708
3000.01 0.00412708
3000.02 0.00412707
3000.03 0.00412707
3000.06 0.00412705
3000.11 0.00412703
3000.22 0.00412697
3000.45 0.00412686
3000.89 0.00412665
3001.78 0.00412621
3003.56 0.00412534
3007.11 0.00412362
3014.22 0.00412023
3028.44 0.00411361
3056.88 0.00410091
3113.76 0.00407706
3227.53 0.00403359
3455.05 0.00395889
3910.10 0.00384903
4000.00 0.00383296
4250.00 0.00380472
4500.00 0.00378978
4500.00 0.00378978
4500.01 0.00378978
4500.02 0.00378978
4500.03 0.00378978
4500.06 0.00378978
4500.12 0.00378978
4500.25 0.00378977
4500.49 0.00378977
4500.98 0.00378975
4501.96 0.00378972
4503.91 0.00378966
4507.81 0.00378953
4515.63 0.00378930
4531.25 0.00378887
4562.50 0.00378817
4625.00 0.00378744
4750.00 0.00378868
5000.00 0.00380281
5000.00 0.00380281
5000.01 0.00380281
5000.01 0.00380281
5000.02 0.00380281
5000.04 0.00380281
5000.08 0.00380282
5000.15 0.00380282
5000.29 0.00380284
5000.59 0.00380286
5001.17 0.00380291
5002.34 0.00380302
5004.68 0.00380323
5009.36 0.00380367
5018.73 0.00380455
5037.45 0.00380640
5074.91 0.00381041
5149.81 0.00381977
5299.61 0.00384458
5599.23 0.00393090
5898.84 0.00418983
6048.64 0.00495691
6086.10 0.00571144
6104.82 0.00646151
6123.55 0.00783207
6142.27 0.0107693
6151.64 0.0137017
6161.00 0.0190588
6165.68 0.0235807
6170.36 0.0304951
6175.04 0.0418497
6179.73 0.0624411
6182.07 0.0796952
6184.41 0.105891
6186.75 0.148463
6189.09 0.224499
6190.26 0.287295
6191.43 0.381140
6192.60 0.530533
6193.77 0.789591
6194.94 1.29885
6195.53 1.76004
6196.11 2.51566
6196.70 3.87514
6196.99 5.00076
6197.28 6.67081
6197.57 9.29949
6197.87 13.6716
6198.16 21.5000
6198.45 35.9431
6198.73 57.5058
6199.00 71.8731
6199.28 57.4927
6199.55 35.9340
6199.84 21.4247
6200.14 13.6315
6200.43 9.25425
6200.72 6.64325
6201.02 4.97386
6201.31 3.85695
6201.90 2.50312
6202.49 1.75099
6203.07 1.29208
6204.25 0.786040
6205.42 0.528107
6206.59 0.379403
6207.77 0.286007
6208.94 0.223604
6211.29 0.147903
6213.64 0.105550
6215.98 0.0794820
6218.33 0.0623073
6223.02 0.0417983
6227.72 0.0304915
6232.41 0.0236021
6237.11 0.0190983
6246.50 0.0137617
6255.89 0.0108421
6274.66 0.00792309
6293.44 0.00656783
6312.22 0.00583266
6349.78 0.00510835
6500.00 0.00447027
6500.00 0.00447027
6500.01 0.00447026
6500.01 0.00447025
6500.03 0.00447024
6500.05 0.00447022
6500.10 0.00447017
6500.20 0.00447007
6500.39 0.00446987
6500.78 0.00446948
6501.56 0.00446870
6503.13 0.00446718
6506.25 0.00446426
6512.50 0.00445885
6525.00 0.00444966
6549.99 0.00443679
6599.99 0.00442731
6699.97 0.00444762
6899.95 0.00456619
7299.89 0.00497873
8099.78 0.00670834
8549.89 0.00885590
8774.94 0.0106612
8887.47 0.0118797
9000.00 0.0134021
9000.00 0.0134021
9000.01 0.0134022
9000.02 0.0134024
9000.03 0.0134026
9000.06 0.0134031
9000.12 0.0134040
9000.25 0.0134058
9000.49 0.0134095
9000.98 0.0134170
9001.96 0.0134318
9003.91 0.0134616
9007.81 0.0135217
9015.63 0.0136432
9031.25 0.0138925
9062.50 0.0144173
9093.75 0.0149800
9125.00 0.0155842
9156.25 0.0162341
9187.50 0.0169344
9218.75 0.0176905
9250.00 0.0185084
9281.25 0.0193950
9312.50 0.0203583
9375.00 0.0225522
9437.50 0.0251806
9500.00 0.0283660
9562.50 0.0322766
9625.00 0.0371487
9687.49 0.0433224
9749.99 0.0513008
9812.49 0.0618514
9874.99 0.0761871
9937.49 0.0963078
9999.99 0.125670
10000.0 0.125682
10000.1 0.125722
10000.1 0.125756
10000.3 0.125825
10000.5 0.125968
10001.0 0.126256
10002.0 0.126833
10004.0 0.127995
10008.0 0.130365
10016.0 0.135312
10031.9 0.146075
10063.8 0.171721
10127.5 0.246961
10191.3 0.377790
10223.1 0.478713
10255.0 0.614308
10380.0 1.29189
10411.3 1.24699
10442.5 1.07838
10505.0 0.679539
10569.3 0.409676
10633.7 0.261546
10698.0 0.178080
10762.3 0.128037
10826.7 0.0961535
10891.0 0.0747745
11019.7 0.0489669
11148.4 0.0346790
11277.0 0.0259919
11534.4 0.0164529
11791.7 0.0116269
12049.0 0.00886046
12563.7 0.00598169
13078.4 0.00459597
13593.1 0.00382625
14622.4 0.00304816
16681.1 0.00249254
17710.5 0.00238402
18225.2 0.00235531
18482.5 0.00236826
18611.2 0.00246717
18675.5 0.00287976
18707.7 0.00452777
18723.7 0.0110379
18731.8 0.0364098
18735.8 0.132718
18736.8 0.228059
18737.8 0.479584
18738.3 0.809548
18738.8 1.61971
18739.1 2.57050
18739.3 4.65947
18739.5 6.88280
18739.6 10.6057
18739.6 14.2244
18739.7 18.8241
18739.8 25.5969
18739.8 35.5440
18739.9 56.8474
18740.0 71.0407
18740.1 56.8477
18740.2 35.5444
18740.3 23.0388
18740.3 16.3076
18740.4 11.4943
18740.5 8.77040
18740.6 5.37013
18740.8 3.59858
18741.1 1.92472
18741.4 1.19223
18742.0 0.585374
18742.6 0.349562
18743.8 0.164978
18745.0 0.0962674
18749.7 0.0267657
18759.2 0.00855963
18778.3 0.00389908
18816.4 0.00272051
18892.6 0.00242503
19045.0 0.00236433
19197.4 0.00245182
19273.6 0.00287269
19311.7 0.00456542
19330.7 0.0112555
19340.3 0.0372735
19342.6 0.0634875
19345.0 0.135635
19346.2 0.231889
19347.4 0.487085
19348.0 0.815587
19348.6 1.61177
19348.9 2.55139
19349.0 3.35718
19349.2 4.60264
19349.3 6.65993
19349.5 10.3588
19349.6 17.7211
19349.7 23.6189
19349.8 32.6327
19349.9 52.8141
19350.0 65.3546
19350.1 52.7960
19350.2 32.6186
19350.3 23.6092
19350.4 17.0343
19350.5 12.6746
19350.5 9.71492
19350.7 6.15264
19350.9 4.21080
19351.0 3.05086
19351.2 2.30740
19351.5 1.46731
19351.8 1.00233
19352.1 0.727520
19352.8 0.436185
19354.0 0.206537
19355.3 0.120544
19357.8 0.0563942
19360.4 0.0331719
19365.5 0.0162214
19370.5 0.0101954
19390.8 0.00429433
19431.5 0.00279832
19512.7 0.00241879
19675.1 0.00231889
20000.0 0.00228719
20000.0 0.00228719
20000.1 0.00228719
20000.1 0.00228718
20000.2 0.00228718
20000.4 0.00228717
20000.8 0.00228716
20001.5 0.00228712
20002.9 0.00228706
20005.9 0.00228693
20011.7 0.00228668
20023.5 0.00228618
20046.9 0.00228524
20093.8 0.00228353
20187.5 0.00228066
20375.0 0.00227642
20750.0 0.00227158
21500.0 0.00227065
23000.0 0.00229408
23000.0 0.00229408
23000.1 0.00229408
23000.1 0.00229408
23000.2 0.00229408
23000.4 0.00229409
23000.8 0.00229409
23001.5 0.00229411
23003.0 0.00229414
23006.0 0.00229420
23012.0 0.00229431
23024.0 0.00229455
23047.9 0.00229503
23095.9 0.00229601
23191.7 0.00229807
23383.4 0.00230262
23766.8 0.00231350
24533.6 0.00234470
25300.3 0.00241321
25683.7 0.00257705
25779.6 0.00273113
25875.4 0.00315735
25923.3 0.00374105
25947.3 0.00431898
25971.3 0.00536576
25995.2 0.00757089
26007.2 0.00972882
26019.2 0.0135804
26031.2 0.0214986
26037.2 0.0290404
26043.1 0.0420948
26049.1 0.0676539
26052.1 0.0907881
26055.1 0.128436
26058.1 0.196066
26059.6 0.251707
26061.1 0.333513
26062.6 0.461705
26064.1 0.673745
26065.6 1.04718
26067.1 1.72070
26068.6 2.75021
26070.0 3.43972
26071.5 2.75757
26072.9 1.72652
26074.2 1.10543
26075.6 0.742399
26076.9 0.522962
26078.2 0.385988
26080.9 0.232457
26083.5 0.154593
26086.2 0.110177
26088.8 0.0825921
26094.1 0.0516507
26099.4 0.0356535
26104.7 0.0263397
26115.3 0.0164928
26125.9 0.0116726
26136.5 0.00896146
26157.7 0.00618214
26178.9 0.00485968
26200.1 0.00412916
26242.5 0.00339284
26327.3 0.00286085
26412.1 0.00267552
26751.2 0.00251207
27429.6 0.00251600
28786.3 0.00263394
30142.9 0.00280985
30821.3 0.00292856
31160.4 0.00302417
31330.0 0.00319029
31414.8 0.00373671
31457.2 0.00584092
31478.4 0.0140504
31483.7 0.0223756
31489.0 0.0454904
31491.7 0.0766809
31494.3 0.160832
31495.6 0.270858
31497.0 0.549119
31497.6 0.884517
31498.0 1.17991
31498.3 1.64945
31498.6 2.45714
31498.9 4.00296
31499.1 5.39570
31499.3 7.41307
31499.4 10.8444
31499.6 16.0484
31499.8 25.6751
31500.0 32.0908
31500.2 25.6714
31500.4 16.0455
31500.6 10.1066
31500.8 6.82161
31501.0 4.74950
31501.1 3.52032
31501.5 2.10702
31501.9 1.40696
31502.2 0.994633
31502.6 0.744967
31503.3 0.459463
31504.8 0.224355
31506.3 0.133538
31509.2 0.0637312
31512.1 0.0379683
31518.0 0.0189285
31523.8 0.0120863
31535.6 0.00711666
31547.3 0.00535658
31594.1 0.00364770
31687.9 0.00323365
31875.3 0.00316642
32062.8 0.00319027
32250.2 0.00322962
32437.7 0.00327534
32625.1 0.00332540
33000.0 0.00343753
33000.0 0.00343753
33000.1 0.00343755
33000.1 0.00343757
33000.2 0.00343760
33000.4 0.00343766
33000.8 0.00343779
33001.6 0.00343805
33003.2 0.00343857
33006.4 0.00343960
33012.8 0.00344168
33025.7 0.00344584
33051.3 0.00345424
33102.6 0.00347133
33205.2 0.00350672
33410.4 0.00358343
33820.8 0.00377838
34231.2 0.00421420
34333.8 0.00453627
34436.3 0.00535283
34487.6 0.00641318
34513.3 0.00743037
34538.9 0.00921715
34564.6 0.0128135
34577.4 0.0161690
34590.2 0.0218430
34603.1 0.0325831
34609.5 0.0419280
34615.9 0.0566041
34622.3 0.0814160
34628.7 0.127654
34631.9 0.166799
34635.1 0.225282
34638.3 0.315853
34641.5 0.455816
34645.8 0.727811
34650.0 0.911406
34654.2 0.732174
34658.5 0.459801
34661.4 0.328586
34664.3 0.240442
34667.2 0.181324
34670.1 0.140900
34676.0 0.0914970
34681.8 0.0642897
34687.7 0.0478734
34693.5 0.0373072
34705.2 0.0250137
34716.8 0.0184427
34728.5 0.0145353
34751.8 0.0103288
34775.2 0.00823663
34798.5 0.00705147
34845.2 0.00583548
34938.5 0.00495626
35031.9 0.00466894
35405.3 0.00454644
36152.0 0.00498488
36898.8 0.00583008
37272.2 0.00718193
37365.6 0.00826392
37458.9 0.0110163
37505.6 0.0145075
37528.9 0.0177634
37552.3 0.0232886
37575.6 0.0338178
37587.3 0.0430659
37598.9 0.0577157
37610.6 0.0828547
37622.3 0.130750
37628.1 0.172201
37633.9 0.235625
37639.8 0.336339
37645.6 0.497629
37652.8 0.793502
37660.0 0.989391
37667.2 0.790161
37674.4 0.495108
37679.9 0.342255
37685.4 0.244135
37690.9 0.180830
37696.4 0.138785
37707.3 0.0890805
37718.3 0.0625141
37729.3 0.0468191
37740.3 0.0368522
37762.2 0.0254234
37784.2 0.0194007
37806.1 0.0158572
37850.0 0.0120899
37937.8 0.00923729
38025.6 0.00824656
38376.8 0.00762694
39079.2 0.00855609
39781.6 0.0100933
40484.0 0.0121387
41231.3 0.0149649
41605.0 0.0168416
41791.8 0.0188440
41838.5 0.0202645
41885.2 0.0238984
41908.6 0.0287324
41931.9 0.0420442
41943.6 0.0600664
41955.3 0.109134
41961.1 0.173929
41967.0 0.343023
41969.9 0.553778
41971.3 0.744873
41972.8 1.05820
41974.3 1.62249
41975.0 2.08922
41975.7 2.78473
41976.5 3.87689
41977.2 5.70238
41977.9 8.96464
41978.6 14.9011
41979.3 23.8976
41980.0 29.7773
41980.7 23.7567
41981.4 14.8997
41982.1 8.67103
41982.9 5.41886
41983.7 3.64168
41984.4 2.60603
41985.2 1.94347
41986.0 1.50746
41987.5 0.979446
41989.0 0.686568
41990.6 0.510049
41993.6 0.315962
41996.7 0.217223
41999.8 0.160641
42005.9 0.101436
42018.1 0.0566550
42030.4 0.0403338
42054.9 0.0284070
42079.4 0.0242107
42177.5 0.0204225
42373.5 0.0201993
42765.7 0.0214783
43550.0 0.0232288
44744.7 0.0211398
45342.1 0.0185729
45640.8 0.0172195
45790.1 0.0166589
45864.8 0.0168229
45902.1 0.0186343
45920.8 0.0261985
45930.1 0.0546334
45934.8 0.153634
45937.1 0.452667
45938.3 1.16716
45938.9 2.33863
45939.1 3.61740
45939.4 5.98884
45939.7 9.60648
45940.0 11.9617
45940.3 9.60609
45940.6 5.98856
45940.9 3.44712
45941.2 2.12538
45941.9 1.00536
45943.2 0.376943
45945.8 0.126563
45951.1 0.0465233
45961.7 0.0238305
45982.8 0.0177039
46025.0 0.0159612
46109.4 0.0151965
46278.3 0.0143777
46616.0 0.0130045
47808.0 0.00927889
49000.0 0.00691451
49000.0 0.00691447
49000.1 0.00691437
49000.1 0.00691427
49000.3 0.00691408
49000.5 0.00691371
49001.0 0.00691295
49002.0 0.00691142
49003.9 0.00690839
49007.8 0.00690232
49015.6 0.00689022
49031.3 0.00686612
49062.5 0.00681835
49125.0 0.00672453
49250.0 0.00654355
49500.0 0.00620663
50000.0 0.00562143
51218.7 0.00457464
52437.3 0.00390139
53656.0 0.00354730
54265.3 0.00382065
54417.6 0.00422694
54569.9 0.00538430
54646.1 0.00690650
54684.2 0.00833561
54722.3 0.0107610
54760.4 0.0153565
54779.4 0.0193579
54798.4 0.0256405
54817.5 0.0362535
54836.5 0.0559984
54846.0 0.0726496
54855.6 0.0975514
54865.1 0.135877
54874.6 0.195048
54887.3 0.310309
54900.0 0.386851
54912.7 0.309708
54925.4 0.194598
54935.3 0.133625
54945.2 0.0948925
54955.1 0.0701097
54965.1 0.0537332
54984.9 0.0345368
55004.7 0.0243402
55024.5 0.0183429
55044.4 0.0145417
55084.0 0.0101905
55123.6 0.00789477
55163.3 0.00653935
55242.6 0.00508334
55401.2 0.00393737
55559.7 0.00349212
56194.1 0.00296518
57462.7 0.00269562
60000.0 0.00253890
60000.0 0.00253890
60000.1 0.00253890
60000.1 0.00253890
60000.3 0.00253890
60000.5 0.00253891
60001.0 0.00253892
60002.0 0.00253894
60003.9 0.00253897
60007.8 0.00253905
60015.6 0.00253921
60031.1 0.00253956
60062.2 0.00254034
60124.3 0.00254229
60248.5 0.00254791
60497.1 0.00256847
60994.1 0.00269080
61491.2 0.00339077
61615.4 0.00410165
61677.5 0.00480205
61739.7 0.00606105
61801.8 0.00867815
61832.9 0.0112015
61863.9 0.0156271
61895.0 0.0244812
61910.5 0.0326619
61926.1 0.0463562
61941.6 0.0718308
61949.4 0.0936104
61957.1 0.127118
61964.9 0.182292
61972.7 0.280748
61980.4 0.475341
61984.3 0.643386
61988.2 0.888748
61994.1 1.41937
62000.0 1.76492
62005.9 1.40563
62011.8 0.878807
62016.5 0.598314
62021.1 0.420946
62025.8 0.307518
62030.4 0.232878
62039.7 0.145476
62049.0 0.0991494
62058.3 0.0719151
62067.5 0.0546651
62086.1 0.0349596
62104.7 0.0245842
62123.3 0.0184779
62160.4 0.0119535
62197.6 0.00872962
62234.7 0.00690578
62309.0 0.00502666
62383.3 0.00412881
62457.6 0.00363199
62606.2 0.00313158
63200.6 0.00266157
64389.4 0.00267796
64983.8 0.00283409
65578.2 0.00319346
65726.8 0.00334981
65875.4 0.00355397
65949.7 0.00368000
66024.0 0.00382644
66061.2 0.00390865
66098.3 0.00399769
66135.5 0.00409429
66172.6 0.00419929
66209.8 0.00431362
66246.9 0.00443833
66321.2 0.00472378
66395.5 0.00506715
66469.8 0.00548298
66544.1 0.00598952
66618.4 0.00660896
66692.7 0.00736675
66767.0 0.00828830
66875.3 0.00995516
66983.5 0.0119347
67200.0 0.0149395
67308.3 0.0145982
67416.5 0.0130464
67633.0 0.00925032
67824.3 0.00694402
68015.6 0.00563151
68207.0 0.00523624
68254.8 0.00551044
68302.6 0.00652841
68326.5 0.00801110
68350.4 0.0121716
68362.4 0.0177942
68374.4 0.0329398
68380.3 0.0526426
68383.3 0.0711940
68386.3 0.102902
68389.3 0.163774
68390.8 0.217839
68392.3 0.303596
68393.8 0.453182
68395.3 0.740666
68396.0 0.994939
68396.8 1.38527
68397.5 2.02701
68398.3 3.07010
68399.1 4.92122
68400.0 6.21636
68400.9 5.02522
68401.7 3.15136
68402.4 2.14624
68403.1 1.50070
68403.8 1.09089
68404.5 0.825185
68405.9 0.512575
68407.2 0.347282
68408.6 0.249923
68410.0 0.188902
68412.7 0.119263
68415.5 0.0825757
68418.2 0.0610972
68423.7 0.0381616
68434.7 0.0205208
68445.7 0.0140590
68467.6 0.00958420
68489.6 0.00862524
68511.5 0.00954657
68533.5 0.0139453
68544.5 0.0202313
68550.0 0.0263187
68555.4 0.0369351
68560.9 0.0578476
68563.7 0.0768612
68566.4 0.107908
68569.2 0.163971
68570.5 0.210115
68571.9 0.278717
68573.3 0.386091
68574.7 0.564727
68576.0 0.881814
68577.4 1.46416
68578.7 2.33947
68580.0 2.89965
68581.3 2.30225
68582.6 1.44061
68583.8 0.925637
68585.0 0.622312
68586.2 0.440142
68587.4 0.326165
68589.7 0.197877
68592.1 0.132568
68594.5 0.0952141
68596.8 0.0719681
68601.6 0.0458358
68606.3 0.0322683
68611.1 0.0243706
68620.6 0.0159896
68630.0 0.0118586
68639.5 0.00952084
68658.5 0.00709134
68677.5 0.00590707
68696.4 0.00523262
68734.4 0.00451560
68810.3 0.00392393
68886.1 0.00366097
69189.6 0.00325349
69796.6 0.00299841
71010.6 0.00290336
72224.6 0.00297303
72831.7 0.00305984
73135.2 0.00320150
73286.9 0.00364021
73362.8 0.00529437
73400.7 0.0116107
73410.2 0.0178903
73419.7 0.0348540
73424.4 0.0569709
73429.2 0.113583
73431.5 0.182425
73433.9 0.341427
73435.1 0.512827
73436.3 0.844235
73436.9 1.14334
73437.5 1.60640
73438.1 2.36531
73438.7 3.64158
73439.3 5.83273
73440.0 7.27638
73440.7 5.82802
73441.3 3.63791
73442.1 2.17596
73442.8 1.38214
73443.5 0.938675
73444.2 0.673623
73445.7 0.391785
73447.1 0.255030
73448.5 0.179123
73450.0 0.132836
73452.9 0.0819178
73458.6 0.0408964
73464.4 0.0252096
73475.9 0.0133176
73487.4 0.00896610
73510.4 0.00576459
73533.4 0.00462097
73579.4 0.00379596
73625.5 0.00350813
73809.6 0.00324857
74177.8 0.00323371
74914.3 0.00334589
76387.2 0.00367110
77860.1 0.00411850
78596.6 0.00442380
78964.8 0.00470047
79148.9 0.00525441
79194.9 0.00574388
79241.0 0.00702787
79264.0 0.00867867
79275.5 0.0102259
79287.0 0.0128584
79298.5 0.0178933
79304.3 0.0223233
79310.0 0.0293633
79315.8 0.0414998
79321.5 0.0647001
79324.4 0.0848957
79327.3 0.115885
79330.2 0.165581
79333.0 0.245438
79336.5 0.389756
79340.0 0.484745
79343.5 0.387524
79347.0 0.243705
79350.7 0.147405
79354.4 0.0955864
79358.1 0.0665226
79361.8 0.0490966
79369.3 0.0305094
79376.7 0.0214644
79384.1 0.0164302
79391.5 0.0133626
79406.4 0.00997837
79421.2 0.00825653
79436.1 0.00726708
79465.7 0.00623606
79525.1 0.00547271
79584.5 0.00521155
79822.0 0.00504144
80297.0 0.00522542
81247.0 0.00581354
82197.0 0.00656425
82672.0 0.00700891
82909.5 0.00725119
83147.0 0.00750796
83384.5 0.00778018
83622.0 0.00806887
83859.5 0.00837512
84097.0 0.00870010
84572.0 0.00941110
85047.0 0.0102121
85522.0 0.0111137
85997.0 0.0121264
86947.0 0.0145186
87713.4 0.0168227
88096.6 0.0181451
88288.1 0.0190876
88383.9 0.0205438
88431.8 0.0246919
88443.8 0.0283574
88455.8 0.0371561
88461.8 0.0471061
88467.8 0.0678768
88470.8 0.0878157
88473.8 0.121709
88476.7 0.184029
88479.7 0.304072
88482.4 0.474779
88485.0 0.586182
88487.6 0.470996
88490.3 0.301679
88493.2 0.184227
88496.2 0.122615
88499.1 0.0888142
88502.0 0.0688601
88507.9 0.0478816
88513.8 0.0378232
88525.5 0.0289040
88537.3 0.0252266
88584.3 0.0212799
88678.3 0.0204291
88866.4 0.0207568
89242.5 0.0219349
89994.6 0.0241638
91499.0 0.0261156
91614.2 0.0263144
91671.8 0.0272837
91700.5 0.0311888
91714.9 0.0460673
91722.1 0.0995453
91725.7 0.272335
91726.6 0.416300
91727.5 0.730840
91728.4 1.61548
91728.9 2.75141
91729.3 5.12872
91729.7 8.24004
91730.0 10.2372
91730.3 8.14973
91730.7 5.13437
91730.9 3.46774
91731.2 2.45377
91731.7 1.35821
91732.8 0.586589
91733.8 0.327622
91734.9 0.214076
91737.0 0.118590
91739.1 0.0808190
91747.6 0.0407321
91764.4 0.0297198
91798.2 0.0268065
91865.7 0.0259947
92000.7 0.0256300
92270.7 0.0251166
92810.8 0.0237948
93890.8 0.0202673
96051.0 0.0133347
98025.5 0.00913263
100000 0.00658898
101574 0.00529569
102362 0.00482207
102755 0.00466607
102952 0.00479257
103050 0.00563514
103100 0.00906612
103124 0.0220413
103136 0.0679103
103140 0.110254
103143 0.208730
103144 0.328418
103146 0.565114
103146 0.808440
103147 1.16723
103148 1.91803
103149 3.34089
103149 5.21997
103150 6.66084
103151 5.23082
103151 3.32437
103152 1.92243
103153 1.23851
103154 0.809776
103154 0.590016
103156 0.339492
103157 0.219905
103160 0.114403
103163 0.0708042
103169 0.0360895
103175 0.0230153
103187 0.0129403
103199 0.00928961
103223 0.00658617
103247 0.00561531
103342 0.00462661
103533 0.00430128
103915 0.00408107
104678 0.00378333
106205 0.00333482
107732 0.00301416
108496 0.00289475
108878 0.00285491
109069 0.00288108
109164 0.00306853
109212 0.00384495
109236 0.00688145
109247 0.0182132
109253 0.0585565
109256 0.185531
109258 0.504888
109259 1.00817
109259 2.52268
109260 5.04776
109261 2.51047
109261 1.00428
109262 0.503434
109263 0.206391
109266 0.0678819
109271 0.0216055
109282 0.00781027
109304 0.00408393
109346 0.00311254
109432 0.00285623
109603 0.00277656
109944 0.00273096
110628 0.00269528
111312 0.00280293
111483 0.00295156
111654 0.00338856
111825 0.00571600
111910 0.0145032
111932 0.0230832
111953 0.0455628
111964 0.0740222
111969 0.100426
111974 0.143430
111980 0.223900
111982 0.292106
111985 0.391462
111988 0.557173
111990 0.831928
111993 1.36600
111996 2.37701
111998 3.82733
112000 4.73991
112002 3.76940
112005 2.38419
112006 1.58036
112008 1.08672
112010 0.780401
112012 0.591281
112016 0.365150
112019 0.246441
112023 0.177207
112027 0.133547
112034 0.0838593
112042 0.0575542
112049 0.0423569
112064 0.0261413
112079 0.0180961
112094 0.0135845
112123 0.00893317
112183 0.00547032
112242 0.00422069
112361 0.00330934
112479 0.00298546
112954 0.00267284
113903 0.00263570
115801 0.00294765
116751 0.00336307
117700 0.00418029
118649 0.00594429
119124 0.00763455
119361 0.00899308
119479 0.0104851
119539 0.0139577
119568 0.0256550
119576 0.0366883
119583 0.0650172
119587 0.0996902
119591 0.180635
119593 0.271819
119594 0.443175
119595 0.617178
119596 0.871926
119597 1.29802
119598 2.09113
119599 3.29552
119600 4.17036
119601 3.30415
119602 2.09788
119603 1.43266
119604 0.992349
119604 0.717039
119605 0.538542
119607 0.333538
119608 0.226743
119612 0.125904
119615 0.0818255
119621 0.0453626
119628 0.0310723
119640 0.0201326
119653 0.0161548
119679 0.0133017
119704 0.0123965
119755 0.0119946
119806 0.0121263
119908 0.0128099
120010 0.0137016
120160 0.0152030
120310 0.0168445
120460 0.0185323
120610 0.0201341
120910 0.0223690
121210 0.0223053
121510 0.0199602
121810 0.0165896
122410 0.0107138
122915 0.00764122
123167 0.00659105
123294 0.00615646
123357 0.00596509
123388 0.00590178
123404 0.00598214
123412 0.00645256
123416 0.00824184
123418 0.0146972
123420 0.524213
123420 1.04277
123420 0.524264
123422 0.0155471
123424 0.00861111
123428 0.00651781
123435 0.00592470
123449 0.00573308
123478 0.00561425
123536 0.00544969
123652 0.00516074
123884 0.00466795
124348 0.00392787
125276 0.00303840
126204 0.00255694
127131 0.00228479
128059 0.00215590
128987 0.00222142
129451 0.00245060
129683 0.00270744
129915 0.00319263
130147 0.00423511
130263 0.00525777
130379 0.00707166
130495 0.0107544
130553 0.0142047
130610 0.0200493
130668 0.0311559
130697 0.0408564
130726 0.0561375
130755 0.0820793
130784 0.130715
130799 0.172055
130813 0.234356
130828 0.331174
130842 0.481021
130861 0.769401
130880 0.960834
130899 0.769022
130918 0.482137
130936 0.301472
130954 0.198957
130973 0.138659
130991 0.101627
131009 0.0773607
131027 0.0608874
131064 0.0405957
131100 0.0290950
131137 0.0220158
131209 0.0141054
131282 0.0100348
131355 0.00767043
131501 0.00517324
131647 0.00394913
131793 0.00325783
132084 0.00254216
132376 0.00219430
132668 0.00199664
133251 0.00178735
134417 0.00163447
135000 0.00169293
135292 0.00208871
135365 0.00250368
135438 0.00365812
135474 0.00521259
135511 0.00935555
135529 0.0147094
135538 0.0196708
135547 0.0280345
135556 0.0437456
135561 0.0575062
135565 0.0784773
135570 0.114337
135575 0.178513
135577 0.232845
135579 0.313103
135581 0.434534
135584 0.608221
135587 0.967487
135590 1.19863
135593 0.955203
135596 0.598589
135599 0.434361
135601 0.326102
135605 0.195134
135609 0.127673
135613 0.0894951
135617 0.0660996
135621 0.0508279
135629 0.0328610
135637 0.0231430
135646 0.0173172
135662 0.0109923
135678 0.00781951
135695 0.00600701
135728 0.00412242
135793 0.00270611
135859 0.00218894
135990 0.00180638
136121 0.00166623
136383 0.00155803
136646 0.00151362
137695 0.00144737
139794 0.00139727
141892 0.00138344
142942 0.00142305
143204 0.00146869
143466 0.00159862
143729 0.00227539
143794 0.00294833
143860 0.00476902
143893 0.00714523
143909 0.00938924
143925 0.0132367
143942 0.0206580
143950 0.0272548
143958 0.0378433
143966 0.0563200
143975 0.0924863
143979 0.124653
143983 0.175389
143987 0.259090
143991 0.395099
143995 0.632294
144000 0.796542
144005 0.643369
144009 0.403768
144013 0.259109
144018 0.173851
144022 0.122748
144026 0.0912482
144034 0.0551360
144043 0.0370344
144051 0.0265752
144059 0.0201568
144076 0.0129037
144093 0.00915398
144109 0.00697095
144143 0.00466779
144176 0.00353610
144210 0.00289987
144276 0.00224858
144343 0.00193826
144410 0.00176718
144543 0.00159476
144810 0.00147101
145077 0.00142915
146145 0.00140466
147213 0.00143525
148281 0.00151074
149349 0.00168451
150416 0.00217816
150950 0.00284384
151217 0.00348768
151484 0.00461938
151751 0.00688999
151885 0.00899449
152018 0.0125247
152152 0.0191190
152218 0.0247862
152285 0.0335447
152352 0.0480675
152419 0.0742412
152452 0.0956777
152485 0.126705
152519 0.172864
152552 0.240994
152601 0.384580
152650 0.480369
152699 0.384949
152748 0.241310
152800 0.144967
152852 0.0928107
152904 0.0635315
152956 0.0459706
153008 0.0347663
153060 0.0272366
153164 0.0181189
153268 0.0130485
153372 0.00995267
153580 0.00653582
153788 0.00479395
153996 0.00378928
154412 0.00273624
154828 0.00222487
155244 0.00193928
156076 0.00165035
156908 0.00152015
157739 0.00146725
158155 0.00147297
158571 0.00153963
158779 0.00164967
158987 0.00196946
159195 0.00358469
159247 0.00511061
159273 0.00653994
159299 0.00896762
159325 0.0135808
159338 0.0176158
159351 0.0239820
159364 0.0348130
159377 0.0551807
159384 0.0725409
159390 0.0987596
159397 0.139578
159403 0.202080
159412 0.322547
159420 0.397224
159429 0.313272
159437 0.196019
159444 0.133374
159450 0.0943395
159457 0.0693498
159463 0.0528158
159477 0.0333017
159490 0.0230067
159503 0.0169048
159516 0.0130643
159543 0.00864927
159569 0.00632316
159596 0.00495213
159649 0.00348799
159702 0.00276168
159755 0.00235077
159861 0.00192553
159967 0.00172107
160072 0.00160693
160284 0.00148990
160708 0.00140170
161131 0.00136847
162826 0.00133732
164520 0.00134941
165368 0.00137780
165791 0.00145141
166003 0.00171177
166109 0.00268089
166162 0.00613795
166175 0.00934628
166188 0.0171911
166195 0.0262580
166202 0.0457660
166205 0.0650191
166208 0.0990195
166212 0.164946
166213 0.223036
166215 0.301752
166217 0.481810
166220 0.601065
166223 0.480444
166225 0.300686
166228 0.179200
166231 0.115788
166233 0.0797679
166236 0.0579635
166242 0.0341991
166247 0.0228078
166258 0.0124491
166269 0.00813166
166291 0.00461854
166312 0.00327606
166356 0.00225512
166399 0.00188202
166486 0.00160821
166573 0.00151154
166747 0.00144452
166921 0.00142412
167616 0.00142254
169006 0.00148149
170397 0.00158374
171788 0.00175501
173178 0.00206302
174569 0.00268698
175264 0.00326148
175959 0.00420243
176307 0.00490437
176655 0.00584484
176829 0.00643346
177002 0.00711898
177176 0.00791700
177350 0.00884219
177518 0.00986453
177685 0.0110172
177853 0.0122874
178020 0.0136376
178355 0.0162513
178690 0.0178775
179025 0.0176016
179360 0.0155910
180030 0.0103541
180490 0.00768043
180950 0.00586921
181410 0.00465816
181870 0.00383349
182789 0.00284041
183709 0.00230116
184629 0.00198275
185548 0.00178803
186468 0.00170874
186698 0.00174200
186928 0.00188696
187043 0.00210742
187158 0.00273264
187215 0.00357318
187273 0.00579582
187302 0.00860873
187330 0.0154320
187345 0.0232476
187352 0.0298264
187359 0.0396311
187366 0.0555622
187374 0.0830702
187381 0.134588
187388 0.234218
187394 0.372677
187400 0.463506
187406 0.368337
187412 0.230832
187416 0.166461
187420 0.123614
187429 0.0733998
187437 0.0479762
187445 0.0337461
187453 0.0250897
187461 0.0194684
187477 0.0128879
187493 0.00934509
187510 0.00722742
187542 0.00493862
187574 0.00378771
187607 0.00313212
187671 0.00244766
187736 0.00211549
187801 0.00192838
187930 0.00173357
188189 0.00157966
188448 0.00151432
189483 0.00141072
191554 0.00132551
193625 0.00128363
194660 0.00128489
194919 0.00129893
195178 0.00134508
195307 0.00141196
195437 0.00160317
195501 0.00186739
195566 0.00260271
195631 0.00628074
195663 0.0187601
195671 0.0296794
195679 0.0549138
195683 0.0824266
195687 0.134774
195689 0.180852
195691 0.252796
195693 0.369998
195695 0.574995
195698 0.918770
195700 1.14329
195702 0.913370
195705 0.570770
195707 0.367462
195709 0.246837
195711 0.174389
195713 0.128766
195717 0.0778023
195721 0.0519234
195730 0.0279678
195738 0.0176638
195755 0.00922928
195772 0.00594608
195805 0.00343381
195839 0.00250790
195906 0.00182099
195973 0.00157351
196107 0.00139274
196242 0.00132789
196510 0.00127967
196779 0.00126130
197852 0.00123819
200000 0.00122505
200000 0.00122505
200001 0.00122504
200002 0.00122504
200003 0.00122504
200006 0.00122503
200012 0.00122501
200024 0.00122497
200047 0.00122489
200094 0.00122474
200188 0.00122446
200376 0.00122393
200752 0.00122307
201505 0.00122210
203009 0.00122390
204514 0.00123999
205266 0.00128984
205454 0.00133451
205642 0.00145115
205831 0.00201048
205925 0.00391161
205948 0.00560735
205972 0.00962930
205983 0.0141087
205995 0.0231376
206001 0.0315728
206007 0.0454958
206013 0.0699295
206019 0.113139
206024 0.180488
206030 0.224123
206036 0.179101
206042 0.113022
206048 0.0651508
206055 0.0409337
206061 0.0277994
206068 0.0201052
206081 0.0120304
206095 0.00821403
206121 0.00483662
206148 0.00344584
206201 0.00234897
206254 0.00194481
206360 0.00168252
206465 0.00166950
206571 0.00183326
206677 0.00240327
206783 0.00529608
206810 0.00796585
206836 0.0145077
206850 0.0220738
206863 0.0381213
206869 0.0537977
206876 0.0811582
206883 0.133272
206886 0.176815
206889 0.238691
206895 0.381004
206900 0.474949
206905 0.379338
206911 0.237391
206914 0.175887
206917 0.133718
206924 0.0825063
206930 0.0551666
206937 0.0393164
206943 0.0293161
206949 0.0228299
206962 0.0151000
206975 0.0108414
206988 0.00829140
207014 0.00549217
207039 0.00407971
207065 0.00326969
207116 0.00242535
207168 0.00201538
207219 0.00178606
207322 0.00155175
207425 0.00144002
207527 0.00137813
207733 0.00131535
208144 0.00126992
208555 0.00125517
209376 0.00125525
209787 0.00129261
209993 0.00144402
210095 0.00203672
210147 0.00431303
210173 0.0127003
210185 0.0408995
210192 0.121550
210195 0.296145
210197 0.552771
210197 0.804508
210198 1.21511
210200 2.42073
210201 1.88601
210202 1.20224
210203 0.722401
210204 0.461957
210206 0.227082
210210 0.0867042
210214 0.0453880
210218 0.0283640
210226 0.0143334
210234 0.00891970
210265 0.00328638
210329 0.00176886
210455 0.00137622
210708 0.00127692
211214 0.00125380
212226 0.00125348
214250 0.00127055
216275 0.00131006
216781 0.00133552
217287 0.00139604
217540 0.00147317
217793 0.00167992
217919 0.00195416
217983 0.00221904
218046 0.00268462
218109 0.00362395
218141 0.00449818
218172 0.00597526
218204 0.00877323
218220 0.0111974
218236 0.0149940
218251 0.0213868
218267 0.0332269
218275 0.0431687
218283 0.0579781
218291 0.0806649
218299 0.115532
218309 0.184622
218320 0.231006
218331 0.185509
218341 0.116776
218348 0.0863322
218355 0.0650119
218368 0.0397937
218381 0.0265143
218394 0.0189905
218407 0.0143156
218420 0.0112748
218447 0.00766640
218473 0.00570751
218499 0.00453053
218552 0.00325043
218604 0.00260759
218657 0.00224045
218762 0.00185960
218973 0.00157672
219183 0.00147757
219604 0.00141471
220024 0.00140767
220445 0.00143081
220866 0.00151148
221076 0.00162210
221287 0.00192310
221392 0.00232101
221444 0.00270196
221497 0.00336573
221550 0.00467968
221576 0.00588093
221602 0.00786842
221629 0.0114973
221642 0.0145556
221655 0.0191430
221668 0.0265467
221681 0.0391721
221694 0.0626025
221707 0.108296
221719 0.172690
221730 0.214060
221741 0.170125
221753 0.106775
221766 0.0608739
221780 0.0379113
221793 0.0256367
221806 0.0185139
221820 0.0140459
221833 0.0111186
221860 0.00763003
221887 0.00571423
221914 0.00456163
221968 0.00329918
222021 0.00266237
222075 0.00229759
222182 0.00191829
222290 0.00173574
222397 0.00163490
222612 0.00153439
223041 0.00146700
223470 0.00145002
225188 0.00147502
226906 0.00155129
227765 0.00166267
227979 0.00174878
228194 0.00197049
228301 0.00226088
228409 0.00303284
228462 0.00403002
228516 0.00655655
228543 0.00960158
228570 0.0164967
228583 0.0237390
228597 0.0375102
228603 0.0493897
228610 0.0675553
228617 0.0963192
228623 0.142203
228632 0.226252
228640 0.281787
228648 0.225546
228657 0.141653
228662 0.103865
228667 0.0776925
228678 0.0471670
228688 0.0312579
228699 0.0223321
228709 0.0168048
228720 0.0132297
228741 0.00901248
228762 0.00671747
228783 0.00534241
228825 0.00385343
228867 0.00310563
228910 0.00268047
228994 0.00224045
229162 0.00191562
229331 0.00180370
230005 0.00172366
231353 0.00178761
232702 0.00189882
234050 0.00204131
235221 0.00219367
236391 0.00238054
237562 0.00264490
238147 0.00297981
238293 0.00321563
238440 0.00375446
238513 0.00435921
238586 0.00564187
238623 0.00690212
238659 0.00912247
238696 0.0134216
238732 0.0223017
238761 0.0340428
238790 0.0418031
238819 0.0339468
238848 0.0222749
238868 0.0166029
238888 0.0128210
238928 0.00858725
238969 0.00650232
239009 0.00536313
239090 0.00424448
239171 0.00374486
239332 0.00333808
239493 0.00319401
240139 0.00313257
241430 0.00332643
242205 0.00352209
242593 0.00394626
242786 0.00534265
242835 0.00661473
242883 0.00971057
242907 0.0132560
242920 0.0162469
242932 0.0207936
242944 0.0281332
242956 0.0408969
242968 0.0650734
242980 0.113580
242990 0.179353
243000 0.222642
243010 0.178526
243020 0.112934
243031 0.0667142
243043 0.0429195
243054 0.0299277
243065 0.0222818
243088 0.0142637
243111 0.0104210
243133 0.00829698
243156 0.00701526
243201 0.00560837
243292 0.00448588
243382 0.00405932
243744 0.00362034
244468 0.00348217
245915 0.00331717
248810 0.00288420
252184 0.00255318
253870 0.00253435
254714 0.00261099
255136 0.00284278
255241 0.00305954
255346 0.00363949
255452 0.00636361
255478 0.00880501
255504 0.0145793
255518 0.0210030
255531 0.0340991
255537 0.0462676
255544 0.0663583
255551 0.101633
255557 0.164216
255564 0.261909
255570 0.324799
255577 0.258638
255583 0.162913
255591 0.0929163
255598 0.0577795
255606 0.0391101
255614 0.0283243
255621 0.0216204
255629 0.0171998
255645 0.0119472
255660 0.00907932
255675 0.00734974
255706 0.00546659
255737 0.00451433
255768 0.00397133
255829 0.00340657
255952 0.00298822
256075 0.00284363
256567 0.00274235
257552 0.00284559
258536 0.00302849
259520 0.00325921
260205 0.00343795
260548 0.00352915
260890 0.00361911
261233 0.00370562
261575 0.00378616
262260 0.00391869
262945 0.00399634
263630 0.00400522
265000 0.00385477
265395 0.00393645
265592 0.00457128
265642 0.00523068
265691 0.00698910
265716 0.00922499
265741 0.0146970
265753 0.0210129
265765 0.0343537
265771 0.0474668
265778 0.0698750
265784 0.113009
265790 0.198097
265795 0.315189
265800 0.393950
265805 0.316232
265810 0.198914
265815 0.129307
265819 0.0880883
265824 0.0632527
265829 0.0478508
265838 0.0302883
265847 0.0213092
265865 0.0129208
265883 0.00931918
265920 0.00634693
265956 0.00518126
266029 0.00427444
266102 0.00392529
266394 0.00350427
266978 0.00323188
268145 0.00285523
269313 0.00255881
269896 0.00245962
270480 0.00252845
270620 0.00268557
270759 0.00315394
270829 0.00378338
270864 0.00437954
270899 0.00539982
270934 0.00735452
270951 0.00908258
270969 0.0118120
270986 0.0165290
271004 0.0254805
271013 0.0333287
271021 0.0452519
271030 0.0641983
271039 0.0945465
271049 0.149843
271060 0.186241
271071 0.149053
271081 0.0939314
271090 0.0638081
271099 0.0450070
271108 0.0331679
271116 0.0254406
271134 0.0164974
271151 0.0118001
271168 0.00905941
271186 0.00733019
271221 0.00536403
271255 0.00432722
271290 0.00371616
271360 0.00306071
271499 0.00254121
271638 0.00233526
272194 0.00207096
273307 0.00190114
274419 0.00185682
274697 0.00190132
274975 0.00205583
275115 0.00226371
275254 0.00277043
275323 0.00333814
275393 0.00449510
275427 0.00557015
275462 0.00733505
275497 0.0104305
275532 0.0159917
275566 0.0245505
275600 0.0301764
275634 0.0244150
275668 0.0158823
275695 0.0113526
275722 0.00848402
275749 0.00664203
275775 0.00542958
275829 0.00400561
275882 0.00324858
275989 0.00252120
276096 0.00219893
276310 0.00193549
276524 0.00185113
276952 0.00202535
277059 0.00228532
277166 0.00300557
277220 0.00393649
277273 0.00625414
277300 0.00897285
277327 0.0148886
277340 0.0208467
277353 0.0314746
277367 0.0528171
277374 0.0714823
277380 0.0985066
277390 0.156857
277400 0.194869
277410 0.155611
277420 0.0980163
277429 0.0630563
277438 0.0426093
277448 0.0304078
277457 0.0227600
277475 0.0142547
277494 0.00995283
277512 0.00750255
277530 0.00598194
277567 0.00427999
277604 0.00339641
277641 0.00288232
277714 0.00233538
277788 0.00206476
277861 0.00191065
278008 0.00174815
278302 0.00161757
278596 0.00156131
279772 0.00147187
280949 0.00143536
281537 0.00145788
281684 0.00149542
281831 0.00160885
281904 0.00176846
281978 0.00221576
282051 0.00446385
282088 0.0121251
282107 0.0344689
282116 0.0842857
282120 0.160055
282123 0.236525
282125 0.357202
282130 0.708014
282133 0.563513
282135 0.352219
282139 0.183138
282142 0.107990
282146 0.0693781
282149 0.0485844
282157 0.0275162
282164 0.0179760
282178 0.00970714
282192 0.00636385
282220 0.00373456
282248 0.00274886
282305 0.00200861
282361 0.00173949
282474 0.00154064
282587 0.00146819
283039 0.00138999
283942 0.00135552
285749 0.00132630
287557 0.00132036
288460 0.00136665
288912 0.00156715
289025 0.00176851
289138 0.00231318
289194 0.00302392
289251 0.00483699
289279 0.00704606
289307 0.0121170
289321 0.0175280
289335 0.0280195
289343 0.0373381
289350 0.0516791
289357 0.0753598
289364 0.113839
289372 0.181522
289380 0.226233
289388 0.180621
289396 0.113144
289406 0.0667028
289415 0.0422997
289424 0.0288909
289433 0.0210331
289451 0.0126809
289469 0.00865385
289505 0.00506602
289541 0.00357826
289614 0.00238587
289686 0.00193038
289831 0.00158508
289976 0.00145858
290266 0.00136514
290556 0.00133141
291716 0.00129869
294035 0.00130075
298673 0.00138725
300992 0.00150466
303312 0.00175461
304471 0.00198891
305631 0.00237397
306790 0.00303852
307370 0.00354040
307950 0.00419271
308231 0.00456498
308513 0.00496687
308794 0.00538546
309075 0.00579862
309356 0.00617633
309638 0.00648376
310200 0.00678800
310958 0.00691750
311148 0.00732457
311337 0.00863431
311527 0.0138691
311621 0.0236513
311669 0.0358925
311692 0.0467123
311716 0.0634437
311739 0.0892680
311762 0.129194
311808 0.217597
311820 0.215172
311831 0.198461
311843 0.173427
311854 0.146570
311877 0.101189
311900 0.0708659
311923 0.0516256
311946 0.0392134
311992 0.0251778
312038 0.0180188
312084 0.0139264
312176 0.00969227
312267 0.00762763
312450 0.00569043
312799 0.00426913
313149 0.00360869
313847 0.00288075
315245 0.00216670
316642 0.00182425
318039 0.00164840
319436 0.00157821
320834 0.00164217
321532 0.00180200
321882 0.00196951
322231 0.00226998
322580 0.00287053
322755 0.00341766
322929 0.00431304
323104 0.00591647
323279 0.00916526
323366 0.0121554
323453 0.0170057
323541 0.0252463
323628 0.0391927
323652 0.0441977
323676 0.0495470
323700 0.0549584
323724 0.0599835
323748 0.0640386
323772 0.0665223
323820 0.0653951
323916 0.0465926
324012 0.0287098
324088 0.0200100
324163 0.0145674
324239 0.0110767
324315 0.00875087
324466 0.00598846
324618 0.00449524
324769 0.00360426
324920 0.00303285
325223 0.00237081
325526 0.00201665
325829 0.00180535
326434 0.00157589
327040 0.00146034
327645 0.00139437
328856 0.00132850
330067 0.00130607
331278 0.00131941
331883 0.00135380
332489 0.00145278
332792 0.00158138
332943 0.00170141
333094 0.00190431
333246 0.00228813
333322 0.00262235
333397 0.00314655
333473 0.00403421
333549 0.00568980
333586 0.00709196
333624 0.00918868
333662 0.0124236
333700 0.0174296
333750 0.0271037
333800 0.0334453
333850 0.0269194
333900 0.0172913
333945 0.0116142
333990 0.00824922
334035 0.00621401
334080 0.00492549
334170 0.00347759
334260 0.00274010
334350 0.00231778
334439 0.00205559
334619 0.00176201
334799 0.00161143
334978 0.00152528
335338 0.00143849
336056 0.00138725
336775 0.00139212
337494 0.00143065
338212 0.00152755
338572 0.00163842
338931 0.00189885
339111 0.00220266
339201 0.00246874
339291 0.00289196
339380 0.00362725
339470 0.00506061
339515 0.00633452
339560 0.00834493
339605 0.0116670
339650 0.0172524
339700 0.0267259
339750 0.0331026
339800 0.0268416
339850 0.0173557
339885 0.0127598
339920 0.00969451
339990 0.00624123
340059 0.00454281
340129 0.00361280
340268 0.00270443
340408 0.00230488
340686 0.00200070
340965 0.00193482
341244 0.00198983
341523 0.00220317
341662 0.00244414
341801 0.00291838
341871 0.00334290
341941 0.00401843
342010 0.00514893
342080 0.00707634
342155 0.0102353
342230 0.0122991
342305 0.0101835
342380 0.00706610
342458 0.00501670
342536 0.00390360
342615 0.00328124
342693 0.00291331
342849 0.00253820
343006 0.00237901
343318 0.00229938
343631 0.00235353
344257 0.00276207
344413 0.00302787
344570 0.00360667
344726 0.00578071
344765 0.00744030
344804 0.0108177
344824 0.0139741
344843 0.0191815
344863 0.0283708
344873 0.0355558
344882 0.0450874
344901 0.0701856
344920 0.0853465
344939 0.0675623
344958 0.0431806
344973 0.0297483
344989 0.0214776
345005 0.0163183
345020 0.0129916
345052 0.00915140
345083 0.00715284
345146 0.00528143
345208 0.00449116
345334 0.00390126
345459 0.00374439
345960 0.00401584
346498 0.00471146
346766 0.00511850
347035 0.00553043
347304 0.00591093
347573 0.00621493
348110 0.00642899
349055 0.00546161
350000 0.00401861
350260 0.00368929
351037 0.00292338
351814 0.00242002
352592 0.00208889
353369 0.00186602
354923 0.00160256
356478 0.00146480
358032 0.00138801
359586 0.00134390
362695 0.00130529
365804 0.00129880
368913 0.00130739
375130 0.00134538
387565 0.00145260
400000 0.00157445
400000 0.00152017
400200 0.00185600
400520 0.00239360
400950 0.00311600
401000 0.00320000
401070 0.00319994
401220 0.00319982
401380 0.00319968
401450 0.00319962
401520 0.00319957
401650 0.00319946
401720 0.00319940
401870 0.00319927
401990 0.00319917
402170 0.00319902
402340 0.00319888
402520 0.00319873
402710 0.00319857
402800 0.00319850
402860 0.00319845
403140 0.00319821
403420 0.00319798
403650 0.00319779
403910 0.00319757
404130 0.00319739
404280 0.00319726
404420 0.00319715
404660 0.00319695
405090 0.00319659
405340 0.00319638
405790 0.00319600
406550 0.00319537
408910 0.00319340
409170 0.00319318
409340 0.00319304
409620 0.00319281
409970 0.00319251
411770 0.00319101
411990 0.00319083
412210 0.00319064
415600 0.00318781
416140 0.00318736
416370 0.00318717
416550 0.00318702
416680 0.00318691
416890 0.00318674
417260 0.00318643
417560 0.00318618
417710 0.00318605
417830 0.00318595
417900 0.00318589
418230 0.00318562
418480 0.00318541
418580 0.00318533
418710 0.00318522
419050 0.00318493
419190 0.00318482
419450 0.00318460
419850 0.00318427
421890 0.00318256
425280 0.00317973
428050 0.00317742
428280 0.00317723
428470 0.00317707
429280 0.00317639
430480 0.00317539
430710 0.00317520
430830 0.00317510
431570 0.00317448
431760 0.00317432
431950 0.00317417
432340 0.00317384
433050 0.00317325
433220 0.00317311
433440 0.00317292
433630 0.00317276
434010 0.00317245
434160 0.00317232
434290 0.00317221
434370 0.00317215
434450 0.00317208
434680 0.00317189
434910 0.00317169
435090 0.00317154
435280 0.00317139
435940 0.00317084
436210 0.00317061
436690 0.00317021
437000 0.00316995
437250 0.00316974
437450 0.00316957
437610 0.00316944
438270 0.00316889
439190 0.00316812
439360 0.00316798
439800 0.00316761
440330 0.00316717
442070 0.00316572
442340 0.00316549
442700 0.00316519
444070 0.00316405
445040 0.00316324
445530 0.00316283
445940 0.00316249
446330 0.00316216
447180 0.00316145
447530 0.00316116
447740 0.00316099
447830 0.00316091
447900 0.00316085
447990 0.00316078
448130 0.00316066
448330 0.00316049
448400 0.00316043
448500 0.00316035
448610 0.00316026
448780 0.00316012
448940 0.00315998
449140 0.00315982
449250 0.00315973
450460 0.00315872
450610 0.00315859
450810 0.00315842
450920 0.00315833
451120 0.00315816
451320 0.00315800
451940 0.00315748
452240 0.00315723
452570 0.00315695
453100 0.00315651
454000 0.00315576
454370 0.00315545
454670 0.00315520
454920 0.00315499
456120 0.00315399
456380 0.00315377
456460 0.00315371
456730 0.00315348
456960 0.00315329
457300 0.00315301
457420 0.00315291
457580 0.00315277
457660 0.00315271
457760 0.00315262
457910 0.00315250
458260 0.00315220
458480 0.00315202
458630 0.00315190
458830 0.00315173
459660 0.00315104
459940 0.00315080
460110 0.00315066
460540 0.00315030
462220 0.00314890
463140 0.00314813
463470 0.00314786
463680 0.00314768
463840 0.00314755
463940 0.00314746
464030 0.00314739
464220 0.00314723
464440 0.00314705
464910 0.00314665
465290 0.00314634
465480 0.00314618
465830 0.00314589
466740 0.00314513
467260 0.00314469
467910 0.00314415
468370 0.00314377
468800 0.00314341
469010 0.00314323
469500 0.00314282
469910 0.00314248
470190 0.00314225
470530 0.00314196
471180 0.00314142
473490 0.00313949
473700 0.00313932
474080 0.00313900
474460 0.00313868
477890 0.00313582
480110 0.00313397
480250 0.00313385
480440 0.00313369
480640 0.00313352
480740 0.00313344
481020 0.00313321
481220 0.00313304
482960 0.00313159
484350 0.00313043
484690 0.00313014
484860 0.00313000
485130 0.00312978
485730 0.00312927
486390 0.00312872
487070 0.00312816
487500 0.00312780
487780 0.00312756
488540 0.00312693
488850 0.00312667
489130 0.00312644
489340 0.00312626
489410 0.00312620
489480 0.00312614
489580 0.00312606
489690 0.00312597
489790 0.00312589
490030 0.00312568
490130 0.00312560
490270 0.00312548
490390 0.00312538
490650 0.00312517
491010 0.00312487
491300 0.00312462
491500 0.00312446
492970 0.00312323
493210 0.00312303
493330 0.00312293
493460 0.00312282
493710 0.00312261
496050 0.00312066
497120 0.00311977
497390 0.00311954
497530 0.00311942
497750 0.00311924
497960 0.00311907
498290 0.00311879
498500 0.00311861
498630 0.00311851
498830 0.00311834
498900 0.00311828
499000 0.00311820
499130 0.00311809
499250 0.00311799
499410 0.00311786
499640 0.00311766
500000 0.00311736
500250 0.00311715
500500 0.00311695
500890 0.00311662
501730 0.00311592
502100 0.00311561
502300 0.00311544
502450 0.00311532
502620 0.00311518
502840 0.00311499
502950 0.00311490
503030 0.00311483
503250 0.00311465
503450 0.00311448
503810 0.00311418
504440 0.00311366
504720 0.00311342
505030 0.00311316
505940 0.00311240
507350 0.00311123
507710 0.00311093
508190 0.00311053
509190 0.00310969
509820 0.00310917
510470 0.00310862
510730 0.00310841
511200 0.00310801
511420 0.00310783
511660 0.00310763
512050 0.00310730
512180 0.00310720
512350 0.00310705
512700 0.00310676
512830 0.00310665
512940 0.00310656
513130 0.00310640
513330 0.00310624
513780 0.00310586
514260 0.00310546
514560 0.00310521
515430 0.00310448
516760 0.00310337
525240 0.00309629
525480 0.00309609
525860 0.00309578
526300 0.00309541
526430 0.00309530
526700 0.00309508
526800 0.00309499
526910 0.00309490
527000 0.00309483
527230 0.00309463
527840 0.00309412
529850 0.00309245
530010 0.00309231
530380 0.00309200
530800 0.00309165
530970 0.00309151
531350 0.00309119
531620 0.00309097
531930 0.00309071
532400 0.00309032
532620 0.00309013
533030 0.00308979
533150 0.00308969
533230 0.00308962
533410 0.00308947
534670 0.00308842
535060 0.00308810
535320 0.00308788
535510 0.00308772
535580 0.00308766
535640 0.00308761
535990 0.00308732
536340 0.00308703
536820 0.00308663
537060 0.00308643
537440 0.00308611
537750 0.00308585
537960 0.00308568
538160 0.00308551
538280 0.00308541
538380 0.00308533
538720 0.00308504
539130 0.00308470
539590 0.00308432
540090 0.00308390
540810 0.00308330
543050 0.00308143
543440 0.00308110
543720 0.00308087
543920 0.00308070
544050 0.00308059
544330 0.00308036
544450 0.00308026
544780 0.00307998
545160 0.00307967
545260 0.00307958
545700 0.00307922
545970 0.00307899
546490 0.00307856
546750 0.00307834
547370 0.00307782
549380 0.00307614
549860 0.00307574
550230 0.00307543
550510 0.00307520
550940 0.00307484
551380 0.00307447
551490 0.00307438
551730 0.00307418
551950 0.00307400
552050 0.00307392
552320 0.00307369
552670 0.00307340
553120 0.00307302
554210 0.00307211
555390 0.00307113
555830 0.00307076
556230 0.00307043
556750 0.00306999
557250 0.00306957
557590 0.00306929
557830 0.00306909
558290 0.00306871
558410 0.00306861
558620 0.00306843
558980 0.00306813
559790 0.00306745
559990 0.00306729
560320 0.00306701
560680 0.00306671
560860 0.00306656
560970 0.00306647
561310 0.00306619
561630 0.00306592
562200 0.00306544
562970 0.00306480
563840 0.00306407
564490 0.00306353
564850 0.00306323
564940 0.00306316
565340 0.00306282
566210 0.00306210
566510 0.00306185
566830 0.00306158
567150 0.00306131
568120 0.00306050
568490 0.00306019
568670 0.00306004
568770 0.00305996
568870 0.00305988
569000 0.00305977
569120 0.00305967
569340 0.00305948
569620 0.00305925
570940 0.00305815
571190 0.00305794
571660 0.00305755
572770 0.00305662
573070 0.00305637
573240 0.00305623
573610 0.00305592
574000 0.00305559
574320 0.00305533
574460 0.00305521
574670 0.00305503
574710 0.00305500
574800 0.00305493
574950 0.00305480
575180 0.00305461
575520 0.00305432
576140 0.00305381
576850 0.00305321
577000 0.00305309
577120 0.00305299
577960 0.00305229
578320 0.00305199
578710 0.00305166
578920 0.00305149
579300 0.00305117
579430 0.00305106
579540 0.00305097
579810 0.00305074
580300 0.00305033
580550 0.00305013
581010 0.00304974
583920 0.00304731
586370 0.00304527
587280 0.00304451
587870 0.00304402
589080 0.00304301
589510 0.00304265
589780 0.00304242
589860 0.00304235
590000 0.00304224
590230 0.00304205
590660 0.00304169
590830 0.00304154
591070 0.00304134
591530 0.00304096
593990 0.00303891
594330 0.00303862
594640 0.00303836
594890 0.00303816
595180 0.00303791
595440 0.00303770
595610 0.00303755
596130 0.00303712
596500 0.00303681
596720 0.00303663
597170 0.00303625
598000 0.00303556
598400 0.00303523
598620 0.00303504
599040 0.00303469
599390 0.00303440
600000 0.00303389
600250 0.00303368
600530 0.00303345
601090 0.00303298
602570 0.00303175
602970 0.00303141
603270 0.00303116
603480 0.00303099
604700 0.00302997
605620 0.00302920
607050 0.00302801
607200 0.00302788
607560 0.00302758
608080 0.00302715
609330 0.00302610
609410 0.00302604
609540 0.00302593
609830 0.00302568
610000 0.00302554
611180 0.00302456
611930 0.00302393
612480 0.00302347
613030 0.00302301
613410 0.00302270
613520 0.00302260
613690 0.00302246
613860 0.00302232
614020 0.00302219
614170 0.00302206
614360 0.00302190
614740 0.00302159
614930 0.00302143
615260 0.00302115
616220 0.00302035
616890 0.00301979
617260 0.00301948
617960 0.00301890
618160 0.00301873
618410 0.00301852
619990 0.00301720
620240 0.00301700
620550 0.00301674
620940 0.00301641
621720 0.00301576
622150 0.00301540
622810 0.00301485
623040 0.00301466
623350 0.00301440
623780 0.00301404
624150 0.00301373
625800 0.00301235
626000 0.00301219
626210 0.00301201
626640 0.00301165
627240 0.00301115
628190 0.00301036
628800 0.00300985
629570 0.00300921
629960 0.00300888
630180 0.00300870
630490 0.00300844
630640 0.00300831
630900 0.00300810
631460 0.00300763
631970 0.00300720
632410 0.00300684
632650 0.00300664
632840 0.00300648
633170 0.00300620
633270 0.00300612
633660 0.00300579
634570 0.00300503
635200 0.00300451
635510 0.00300425
635690 0.00300410
636080 0.00300377
636220 0.00300366
636440 0.00300347
636680 0.00300327
636940 0.00300306
637300 0.00300276
637580 0.00300252
638680 0.00300160
639730 0.00300073
640000 0.00300050
640230 0.00300031
640690 0.00299993
640790 0.00299984
640910 0.00299974
641090 0.00299959
641340 0.00299938
642060 0.00299878
642470 0.00299844
643320 0.00299773
643550 0.00299754
643800 0.00299733
643980 0.00299718
644410 0.00299682
644920 0.00299639
645020 0.00299631
645310 0.00299607
645570 0.00299585
645860 0.00299561
646060 0.00299544
646590 0.00299500
646960 0.00299469
647280 0.00299442
648000 0.00299382
648810 0.00299315
649390 0.00299266
650400 0.00299182
651690 0.00299074
652110 0.00299039
652520 0.00299005
652810 0.00298981
652960 0.00298968
653250 0.00298944
653520 0.00298922
654130 0.00298871
654560 0.00298835
655040 0.00298795
655160 0.00298785
655460 0.00298760
655880 0.00298725
656360 0.00298685
656540 0.00298669
656800 0.00298648
657110 0.00298622
657260 0.00298609
657380 0.00298599
657650 0.00298577
657850 0.00298560
657980 0.00298549
658440 0.00298511
659180 0.00298449
660000 0.00298381
660030 0.00298378
660510 0.00298338
661570 0.00298250
661960 0.00298217
662390 0.00298181
662620 0.00298162
662760 0.00298150
662990 0.00298131
663360 0.00298100
664120 0.00298037
664590 0.00297998
664850 0.00297976
665030 0.00297961
665160 0.00297950
665410 0.00297929
666050 0.00297876
668430 0.00297677
669270 0.00297607
670090 0.00297538
670290 0.00297522
670480 0.00297506
670670 0.00297490
670960 0.00297466
671580 0.00297414
672340 0.00297351
672500 0.00297337
672640 0.00297326
673430 0.00297260
674370 0.00297181
674830 0.00297143
675180 0.00297114
675500 0.00297087
675890 0.00297054
677700 0.00296903
679470 0.00296755
679960 0.00296715
680390 0.00296679
680870 0.00296639
681390 0.00296595
682760 0.00296481
683200 0.00296444
683540 0.00296416
683690 0.00296403
683930 0.00296383
684250 0.00296356
684380 0.00296346
684460 0.00296339
684620 0.00296326
685180 0.00296279
685630 0.00296241
687760 0.00296063
688170 0.00296029
688530 0.00295999
688760 0.00295980
688910 0.00295967
689090 0.00295952
689500 0.00295918
689880 0.00295887
690000 0.00295877
690220 0.00295858
690430 0.00295841
690530 0.00295832
690920 0.00295800
691190 0.00295777
691940 0.00295715
692170 0.00295695
692410 0.00295675
692930 0.00295632
693270 0.00295604
693470 0.00295587
693700 0.00295568
693980 0.00295544
694410 0.00295508
695010 0.00295458
695270 0.00295437
695660 0.00295404
696020 0.00295374
696470 0.00295336
697690 0.00295235
699190 0.00295109
700000 0.00295042
701280 0.00294935
701580 0.00294910
702040 0.00294872
702300 0.00294850
703890 0.00294717
706150 0.00294528
710000 0.00294207
710490 0.00294166
712780 0.00293975
713680 0.00293900
714300 0.00293848
714450 0.00293836
714730 0.00293812
714940 0.00293795
715130 0.00293779
715290 0.00293765
715630 0.00293737
715970 0.00293709
716150 0.00293694
716300 0.00293681
716490 0.00293665
716660 0.00293651
717230 0.00293604
717580 0.00293574
719150 0.00293443
719460 0.00293417
720080 0.00293366
720710 0.00293313
720860 0.00293301
721250 0.00293268
721760 0.00293225
722260 0.00293184
724800 0.00292972
725320 0.00292928
726030 0.00292869
726560 0.00292825
727040 0.00292785
727210 0.00292771
727580 0.00292740
728030 0.00292702
728730 0.00292644
730340 0.00292509
730680 0.00292481
730900 0.00292462
731070 0.00292448
731210 0.00292437
731580 0.00292406
735240 0.00292100
735770 0.00292056
736340 0.00292008
736650 0.00291983
736990 0.00291954
737180 0.00291938
737550 0.00291907
737860 0.00291882
738250 0.00291849
739210 0.00291769
739800 0.00291720
740000 0.00291703
741070 0.00291614
741460 0.00291581
742680 0.00291479
744250 0.00291348
744680 0.00291312
744820 0.00291301
745040 0.00291282
745550 0.00291240
746700 0.00291144
748080 0.00291028
748420 0.00291000
748930 0.00290957
749320 0.00290925
749550 0.00290906
749670 0.00290896
750020 0.00290866
750740 0.00290806
751360 0.00290755
751700 0.00290726
752190 0.00290685
753170 0.00290604
754110 0.00290525
754710 0.00290475
755340 0.00290422
755490 0.00290410
755670 0.00290395
756120 0.00290357
756790 0.00290301
757640 0.00290230
758620 0.00290149
758860 0.00290129
760000 0.00290033
760940 0.00289955
762970 0.00289786
763480 0.00289743
763950 0.00289704
764380 0.00289668
764580 0.00289651
764910 0.00289624
765290 0.00289592
765650 0.00289562
765850 0.00289545
766070 0.00289527
766590 0.00289483
767170 0.00289435
767900 0.00289374
768440 0.00289329
769620 0.00289230
769920 0.00289205
770140 0.00289187
770350 0.00289169
770530 0.00289154
770720 0.00289139
770910 0.00289123
771410 0.00289081
771980 0.00289033
772810 0.00288964
773200 0.00288932
775260 0.00288760
775880 0.00288708
776640 0.00288644
777010 0.00288614
777370 0.00288584
777550 0.00288568
777790 0.00288548
778410 0.00288497
778950 0.00288452
779660 0.00288392
779850 0.00288377
780250 0.00288343
780610 0.00288313
781390 0.00288248
781980 0.00288199
782170 0.00288183
782540 0.00288152
783130 0.00288103
783630 0.00288061
784310 0.00288004
785180 0.00287932
785560 0.00287900
786240 0.00287843
786810 0.00287796
787280 0.00287756
787810 0.00287712
787950 0.00287700
788140 0.00287685
788330 0.00287669
788720 0.00287636
788960 0.00287616
789340 0.00287584
790000 0.00287529
791180 0.00287431
791680 0.00287389
791890 0.00287372
792100 0.00287354
792680 0.00287306
793070 0.00287273
793270 0.00287256
793860 0.00287207
794400 0.00287162
794630 0.00287143
795040 0.00287109
795610 0.00287061
799910 0.00286702
800000 0.00286695
800740 0.00286633
801390 0.00286579
802290 0.00286503
802880 0.00286454
803120 0.00286434
803600 0.00286394
803840 0.00286374
804010 0.00286360
804400 0.00286327
804810 0.00286293
805090 0.00286270
805330 0.00286250
805830 0.00286208
806000 0.00286194
806240 0.00286174
806830 0.00286124
807370 0.00286079
810000 0.00285860
811200 0.00285760
812570 0.00285645
812940 0.00285614
813130 0.00285599
813720 0.00285549
814190 0.00285510
814630 0.00285473
814970 0.00285445
815320 0.00285416
815560 0.00285396
815840 0.00285372
816210 0.00285341
816470 0.00285320
816810 0.00285291
817420 0.00285240
818220 0.00285174
818700 0.00285134
819070 0.00285103
819310 0.00285083
819700 0.00285050
819900 0.00285033
820520 0.00284982
821570 0.00284894
822590 0.00284809
823430 0.00284739
824320 0.00284664
824630 0.00284639
824900 0.00284616
825070 0.00284602
825120 0.00284598
825120 0.00284598
825400 0.00284574
825740 0.00284546
826120 0.00284514
826610 0.00284473
827140 0.00284429
827610 0.00284390
827850 0.00284370
828520 0.00284314
829090 0.00284266
830210 0.00284173
831540 0.00284062
832090 0.00284016
832450 0.00283986
832850 0.00283952
833110 0.00283931
833510 0.00283897
833830 0.00283871
834160 0.00283843
834580 0.00283808
834780 0.00283791
834980 0.00283775
835510 0.00283730
835940 0.00283695
836450 0.00283652
836960 0.00283609
838070 0.00283517
839160 0.00283426
839660 0.00283384
840000 0.00283356
840520 0.00283312
841370 0.00283241
841800 0.00283205
842500 0.00283147
843230 0.00283086
843660 0.00283050
844410 0.00282988
844640 0.00282968
844800 0.00282955
845140 0.00282927
845620 0.00282887
846050 0.00282851
847490 0.00282730
848370 0.00282657
849100 0.00282596
849420 0.00282569
849650 0.00282550
849990 0.00282522
850400 0.00282488
850560 0.00282474
851010 0.00282437
851150 0.00282425
851400 0.00282404
851830 0.00282368
852720 0.00282294
853520 0.00282227
854310 0.00282161
854720 0.00282127
855240 0.00282084
856200 0.00282003
856860 0.00281948
857500 0.00281895
858230 0.00281834
858570 0.00281806
859640 0.00281716
859970 0.00281689
860460 0.00281648
861100 0.00281594
861120 0.00281593
861500 0.00281561
861770 0.00281538
862000 0.00281519
862180 0.00281504
862270 0.00281497
862500 0.00281478
862750 0.00281457
863000 0.00281436
863350 0.00281407
863780 0.00281371
864000 0.00281352
864290 0.00281328
864460 0.00281314
864640 0.00281299
865000 0.00281269
865210 0.00281251
865610 0.00281218
866000 0.00281185
866070 0.00281180
866410 0.00281151
867000 0.00281102
867120 0.00281092
867580 0.00281053
867900 0.00281027
868000 0.00281018
868750 0.00280956
869000 0.00280935
870000 0.00280851
870530 0.00280807
871000 0.00280768
871440 0.00280731
871640 0.00280715
872000 0.00280685
872100 0.00280676
872760 0.00280621
873000 0.00280601
873420 0.00280566
873820 0.00280533
873900 0.00280526
874000 0.00280518
874100 0.00280509
874360 0.00280488
874760 0.00280454
875000 0.00280434
875390 0.00280402
875930 0.00280356
876000 0.00280351
876360 0.00280321
876730 0.00280290
877000 0.00280267
877110 0.00280258
877360 0.00280237
877620 0.00280215
878000 0.00280184
879000 0.00280100
879680 0.00280043
880000 0.00280017
880620 0.00279965
880910 0.00279941
881000 0.00279933
881420 0.00279898
881940 0.00279855
882000 0.00279850
882450 0.00279812
883000 0.00279766
884000 0.00279683
885000 0.00279599
885100 0.00279591
885800 0.00279533
886000 0.00279516
886600 0.00279466
887000 0.00279432
887100 0.00279424
887250 0.00279412
888000 0.00279349
888900 0.00279274
889000 0.00279265
889190 0.00279250
889610 0.00279215
890000 0.00279182
890550 0.00279136
891000 0.00279099
891360 0.00279068
892000 0.00279015
893000 0.00278932
893850 0.00278861
894000 0.00278848
894260 0.00278826
895000 0.00278765
895140 0.00278753
895500 0.00278723
896000 0.00278681
896210 0.00278664
896560 0.00278634
897000 0.00278598
897250 0.00278577
897840 0.00278528
898000 0.00278514
898190 0.00278498
898570 0.00278467
899000 0.00278431
899260 0.00278409
899760 0.00278367
899960 0.00278351
900000 0.00278347
900580 0.00278299
900830 0.00278278
901000 0.00278264
901310 0.00278238
901620 0.00278212
901930 0.00278186
902000 0.00278180
902300 0.00278155
902500 0.00278139
902720 0.00278120
903000 0.00278097
903170 0.00278083
903590 0.00278048
903850 0.00278026
904000 0.00278013
904070 0.00278008
904320 0.00277987
904580 0.00277965
905000 0.00277930
905310 0.00277904
906000 0.00277846
906750 0.00277784
907000 0.00277763
907370 0.00277732
907620 0.00277711
907900 0.00277688
908000 0.00277680
908300 0.00277654
909000 0.00277596
909100 0.00277588
910000 0.00277513
911000 0.00277429
911030 0.00277427
911370 0.00277398
911730 0.00277368
912000 0.00277346
912210 0.00277328
912720 0.00277286
913000 0.00277262
913390 0.00277230
913620 0.00277210
914000 0.00277179
914410 0.00277144
915000 0.00277095
915170 0.00277081
915420 0.00277060
915900 0.00277020
916000 0.00277012
916270 0.00276989
917000 0.00276928
917140 0.00276917
917620 0.00276877
918000 0.00276845
918270 0.00276822
918610 0.00276794
919000 0.00276761
919060 0.00276756
919310 0.00276735
919680 0.00276705
920000 0.00276678
920400 0.00276644
921000 0.00276594
921370 0.00276563
922000 0.00276511
922110 0.00276502
923000 0.00276427
923320 0.00276401
924000 0.00276344
924260 0.00276322
924970 0.00276263
925000 0.00276260
925560 0.00276214
926000 0.00276177
926010 0.00276176
926630 0.00276124
927000 0.00276094
927120 0.00276084
928000 0.00276010
928400 0.00275977
929000 0.00275927
930000 0.00275843
931000 0.00275760
931100 0.00275751
931930 0.00275682
932000 0.00275676
932900 0.00275601
933000 0.00275593
934000 0.00275509
934200 0.00275493
935000 0.00275426
935310 0.00275400
935500 0.00275384
936000 0.00275342
936020 0.00275341
936540 0.00275297
937000 0.00275259
937130 0.00275248
937780 0.00275194
937840 0.00275189
938000 0.00275175
938040 0.00275172
938360 0.00275145
939000 0.00275092
939050 0.00275088
940000 0.00275008
940120 0.00274998
940570 0.00274961
941000 0.00274925
941130 0.00274914
941480 0.00274885
942000 0.00274841
942130 0.00274831
942880 0.00274768
943000 0.00274758
944000 0.00274675
944540 0.00274629
945000 0.00274591
945680 0.00274534
946000 0.00274508
946160 0.00274494
946360 0.00274478
946720 0.00274447
947000 0.00274424
947170 0.00274410
947460 0.00274386
948000 0.00274341
948110 0.00274331
948430 0.00274305
948720 0.00274281
949000 0.00274257
949250 0.00274236
949860 0.00274185
950000 0.00274174
950400 0.00274140
951000 0.00274090
951700 0.00274032
952000 0.00274007
953000 0.00273923
953190 0.00273907
954000 0.00273840
954760 0.00273776
955000 0.00273756
955800 0.00273690
956000 0.00273673
956300 0.00273648
957000 0.00273589
957120 0.00273579
957440 0.00273553
957940 0.00273511
958000 0.00273506
958330 0.00273478
958800 0.00273439
959000 0.00273422
959190 0.00273407
959980 0.00273341
960000 0.00273339
960370 0.00273308
960910 0.00273263
961000 0.00273255
961480 0.00273215
961800 0.00273189
962000 0.00273172
962550 0.00273126
963000 0.00273089
964000 0.00273005
964840 0.00272935
965000 0.00272922
965380 0.00272890
965880 0.00272848
966000 0.00272838
966560 0.00272791
966950 0.00272759
967000 0.00272755
967240 0.00272735
968000 0.00272671
968090 0.00272664
968380 0.00272639
968630 0.00272619
969000 0.00272588
969420 0.00272553
969670 0.00272532
970000 0.00272504
970060 0.00272499
970920 0.00272427
971000 0.00272421
971490 0.00272380
971920 0.00272344
972000 0.00272337
972280 0.00272314
972710 0.00272278
973000 0.00272254
973710 0.00272195
974000 0.00272170
974820 0.00272102
975000 0.00272087
975100 0.00272079
975760 0.00272023
976000 0.00272003
976070 0.00271998
976430 0.00271967
976790 0.00271937
977000 0.00271920
977280 0.00271897
977550 0.00271874
977960 0.00271840
978000 0.00271836
978300 0.00271811
979000 0.00271753
979080 0.00271746
980000 0.00271669
980150 0.00271657
980960 0.00271589
981000 0.00271586
981680 0.00271529
982000 0.00271503
982560 0.00271456
983000 0.00271419
983110 0.00271410
983370 0.00271388
983820 0.00271351
984000 0.00271336
984180 0.00271321
985000 0.00271252
985080 0.00271245
986000 0.00271169
986160 0.00271155
986900 0.00271094
987000 0.00271085
987740 0.00271023
988000 0.00271002
988200 0.00270985
988730 0.00270941
989000 0.00270918
989190 0.00270902
989440 0.00270882
989700 0.00270860
990000 0.00270835
990250 0.00270814
990560 0.00270788
991000 0.00270751
991630 0.00270699
991950 0.00270672
992000 0.00270668
992220 0.00270649
992820 0.00270599
993000 0.00270584
993520 0.00270541
993840 0.00270514
994000 0.00270501
994070 0.00270495
994510 0.00270458
994920 0.00270424
995000 0.00270417
995580 0.00270369
996000 0.00270334
996270 0.00270311
997000 0.00270250
997100 0.00270242
997400 0.00270217
998000 0.00270167
998240 0.00270147
999000 0.00270084
999050 0.00270079
999350 0.00270054
999630 0.00270031
999940 0.00270005
999999 0.00270000
1.00000E+06 0.00270000
1.00040E+06 0.00269993
1.00100E+06 0.00269982
1.00200E+06 0.00269964
1.00240E+06 0.00269957
1.00300E+06 0.00269946
1.00330E+06 0.00269941
1.00400E+06 0.00269928
1.00500E+06 0.00269910
1.00560E+06 0.00269899
1.00600E+06 0.00269892
1.00700E+06 0.00269874
1.00750E+06 0.00269865
1.00800E+06 0.00269856
1.00880E+06 0.00269842
1.00900E+06 0.00269838
1.01000E+06 0.00269820
1.01100E+06 0.00269802
1.01130E+06 0.00269797
1.01200E+06 0.00269784
1.01240E+06 0.00269777
1.01300E+06 0.00269766
1.01370E+06 0.00269753
1.01400E+06 0.00269748
1.01460E+06 0.00269737
1.01490E+06 0.00269732
1.01500E+06 0.00269730
1.01540E+06 0.00269723
1.01600E+06 0.00269712
1.01700E+06 0.00269694
1.01740E+06 0.00269687
1.01800E+06 0.00269676
1.01820E+06 0.00269672
1.01850E+06 0.00269667
1.01870E+06 0.00269663
1.01890E+06 0.00269660
1.01900E+06 0.00269658
1.01950E+06 0.00269649
1.02000E+06 0.00269640
1.02050E+06 0.00269631
1.02100E+06 0.00269622
1.02150E+06 0.00269613
1.02200E+06 0.00269604
1.02230E+06 0.00269599
1.02260E+06 0.00269593
1.02300E+06 0.00269586
1.02330E+06 0.00269581
1.02370E+06 0.00269573
1.02390E+06 0.00269570
1.02400E+06 0.00269568
1.02440E+06 0.00269561
1.02480E+06 0.00269554
1.02500E+06 0.00269550
1.02530E+06 0.00269545
1.02580E+06 0.00269536
1.02600E+06 0.00269532
1.02620E+06 0.00269528
1.02630E+06 0.00269527
1.02680E+06 0.00269518
1.02700E+06 0.00269514
1.02760E+06 0.00269503
1.02800E+06 0.00269496
1.02900E+06 0.00269478
1.02950E+06 0.00269469
1.03000E+06 0.00269460
1.03080E+06 0.00269446
1.03100E+06 0.00269442
1.03200E+06 0.00269424
1.03280E+06 0.00269410
1.03300E+06 0.00269406
1.03350E+06 0.00269397
1.03400E+06 0.00269388
1.03430E+06 0.00269383
1.03490E+06 0.00269372
1.03500E+06 0.00269370
1.03600E+06 0.00269352
1.03610E+06 0.00269350
1.03700E+06 0.00269334
1.03770E+06 0.00269321
1.03780E+06 0.00269320
1.03800E+06 0.00269316
1.03830E+06 0.00269311
1.03870E+06 0.00269303
1.03900E+06 0.00269298
1.03920E+06 0.00269294
1.03970E+06 0.00269285
1.04000E+06 0.00269280
1.04030E+06 0.00269275
1.04100E+06 0.00269262
1.04150E+06 0.00269253
1.04190E+06 0.00269246
1.04200E+06 0.00269244
1.04240E+06 0.00269237
1.04280E+06 0.00269230
1.04300E+06 0.00269226
1.04320E+06 0.00269222
1.04370E+06 0.00269213
1.04400E+06 0.00269208
1.04420E+06 0.00269204
1.04480E+06 0.00269194
1.04500E+06 0.00269190
1.04520E+06 0.00269186
1.04600E+06 0.00269172
1.04620E+06 0.00269168
1.04700E+06 0.00269154
1.04770E+06 0.00269141
1.04800E+06 0.00269136
1.04810E+06 0.00269134
1.04860E+06 0.00269125
1.04900E+06 0.00269118
1.05000E+06 0.00269100
1.05090E+06 0.00269084
1.05100E+06 0.00269082
1.05170E+06 0.00269069
1.05200E+06 0.00269064
1.05220E+06 0.00269060
1.05300E+06 0.00269046
1.05400E+06 0.00269028
1.05410E+06 0.00269026
1.05500E+06 0.00269010
1.05570E+06 0.00268997
1.05600E+06 0.00268992
1.05620E+06 0.00268988
1.05700E+06 0.00268974
1.05780E+06 0.00268960
1.05800E+06 0.00268956
1.05880E+06 0.00268942
1.05900E+06 0.00268938
1.05950E+06 0.00268929
1.06000E+06 0.00268920
1.06040E+06 0.00268913
1.06080E+06 0.00268906
1.06100E+06 0.00268902
1.06150E+06 0.00268893
1.06200E+06 0.00268884
1.06230E+06 0.00268879
1.06300E+06 0.00268866
1.06320E+06 0.00268862
1.06400E+06 0.00268848
1.06500E+06 0.00268830
1.06600E+06 0.00268812
1.06630E+06 0.00268807
1.06700E+06 0.00268794
1.06750E+06 0.00268785
1.06800E+06 0.00268776
1.06900E+06 0.00268758
1.06910E+06 0.00268756
1.07000E+06 0.00268740
1.07080E+06 0.00268726
1.07100E+06 0.00268722
1.07140E+06 0.00268715
1.07200E+06 0.00268704
1.07230E+06 0.00268699
1.07300E+06 0.00268686
1.07310E+06 0.00268684
1.07370E+06 0.00268673
1.07400E+06 0.00268668
1.07420E+06 0.00268664
1.07500E+06 0.00268650
1.07580E+06 0.00268636
1.07600E+06 0.00268632
1.07670E+06 0.00268619
1.07700E+06 0.00268614
1.07710E+06 0.00268612
1.07800E+06 0.00268596
1.07870E+06 0.00268583
1.07900E+06 0.00268578
1.08000E+06 0.00268560
1.08100E+06 0.00268542
1.08110E+06 0.00268540
1.08200E+06 0.00268524
1.08300E+06 0.00268506
1.08310E+06 0.00268504
1.08390E+06 0.00268490
1.08400E+06 0.00268488
1.08500E+06 0.00268470
1.08600E+06 0.00268452
1.08630E+06 0.00268447
1.08700E+06 0.00268434
1.08800E+06 0.00268416
1.08880E+06 0.00268402
1.08900E+06 0.00268398
1.09000E+06 0.00268380
1.09060E+06 0.00268369
1.09100E+06 0.00268362
1.09170E+06 0.00268349
1.09200E+06 0.00268344
1.09280E+06 0.00268330
1.09300E+06 0.00268326
1.09350E+06 0.00268317
1.09400E+06 0.00268308
1.09440E+06 0.00268301
1.09500E+06 0.00268290
1.09510E+06 0.00268288
1.09590E+06 0.00268274
1.09600E+06 0.00268272
1.09700E+06 0.00268254
1.09730E+06 0.00268249
1.09800E+06 0.00268236
1.09850E+06 0.00268227
1.09900E+06 0.00268218
1.09920E+06 0.00268214
1.10000E+06 0.00268200
1.10080E+06 0.00268186
1.10100E+06 0.00268182
1.10160E+06 0.00268171
1.10200E+06 0.00268164
1.10210E+06 0.00268162
1.10230E+06 0.00268159
1.10300E+06 0.00268146
1.10340E+06 0.00268139
1.10400E+06 0.00268128
1.10430E+06 0.00268123
1.10500E+06 0.00268110
1.10520E+06 0.00268106
1.10590E+06 0.00268094
1.10600E+06 0.00268092
1.10660E+06 0.00268081
1.10700E+06 0.00268074
1.10750E+06 0.00268065
1.10800E+06 0.00268056
1.10860E+06 0.00268045
1.10900E+06 0.00268038
1.10940E+06 0.00268031
1.10990E+06 0.00268022
1.11000E+06 0.00268020
1.11020E+06 0.00268016
1.11070E+06 0.00268007
1.11100E+06 0.00268002
1.11150E+06 0.00267993
1.11200E+06 0.00267984
1.11210E+06 0.00267982
1.11300E+06 0.00267966
1.11310E+06 0.00267964
1.11400E+06 0.00267948
1.11450E+06 0.00267939
1.11490E+06 0.00267932
1.11500E+06 0.00267930
1.11580E+06 0.00267916
1.11600E+06 0.00267912
1.11610E+06 0.00267910
1.11640E+06 0.00267905
1.11700E+06 0.00267894
1.11730E+06 0.00267889
1.11800E+06 0.00267876
1.11840E+06 0.00267869
1.11890E+06 0.00267860
1.11900E+06 0.00267858
1.11970E+06 0.00267845
1.12000E+06 0.00267840
1.12010E+06 0.00267838
1.12100E+06 0.00267822
1.12140E+06 0.00267815
1.12200E+06 0.00267804
1.12270E+06 0.00267791
1.12300E+06 0.00267786
1.12390E+06 0.00267770
1.12400E+06 0.00267768
1.12480E+06 0.00267754
1.12500E+06 0.00267750
1.12600E+06 0.00267732
1.12680E+06 0.00267718
1.12700E+06 0.00267714
1.12760E+06 0.00267703
1.12800E+06 0.00267696
1.12830E+06 0.00267691
1.12870E+06 0.00267683
1.12900E+06 0.00267678
1.12910E+06 0.00267676
1.12960E+06 0.00267667
1.13000E+06 0.00267660
1.13060E+06 0.00267649
1.13100E+06 0.00267642
1.13170E+06 0.00267629
1.13200E+06 0.00267624
1.13230E+06 0.00267619
1.13300E+06 0.00267606
1.13320E+06 0.00267602
1.13390E+06 0.00267590
1.13400E+06 0.00267588
1.13500E+06 0.00267570
1.13580E+06 0.00267556
1.13600E+06 0.00267552
1.13640E+06 0.00267545
1.13680E+06 0.00267538
1.13700E+06 0.00267534
1.13710E+06 0.00267532
1.13800E+06 0.00267516
1.13810E+06 0.00267514
1.13840E+06 0.00267509
1.13900E+06 0.00267498
1.14000E+06 0.00267480
1.14010E+06 0.00267478
1.14100E+06 0.00267462
1.14150E+06 0.00267453
1.14200E+06 0.00267444
1.14240E+06 0.00267437
1.14300E+06 0.00267426
1.14340E+06 0.00267419
1.14400E+06 0.00267408
1.14430E+06 0.00267403
1.14490E+06 0.00267392
1.14500E+06 0.00267390
1.14530E+06 0.00267385
1.14560E+06 0.00267379
1.14600E+06 0.00267372
1.14620E+06 0.00267368
1.14660E+06 0.00267361
1.14700E+06 0.00267354
1.14740E+06 0.00267347
1.14760E+06 0.00267343
1.14800E+06 0.00267336
1.14820E+06 0.00267332
1.14890E+06 0.00267320
1.14900E+06 0.00267318
1.14970E+06 0.00267305
1.15000E+06 0.00267300
1.15040E+06 0.00267293
1.15100E+06 0.00267282
1.15130E+06 0.00267277
1.15200E+06 0.00267264
1.15300E+06 0.00267246
1.15350E+06 0.00267237
1.15400E+06 0.00267228
1.15500E+06 0.00267210
1.15550E+06 0.00267201
1.15580E+06 0.00267196
1.15600E+06 0.00267192
1.15630E+06 0.00267187
1.15700E+06 0.00267174
1.15720E+06 0.00267170
1.15770E+06 0.00267161
1.15800E+06 0.00267156
1.15850E+06 0.00267147
1.15900E+06 0.00267138
1.15910E+06 0.00267136
1.16000E+06 0.00267120
1.16050E+06 0.00267111
1.16100E+06 0.00267102
1.16120E+06 0.00267098
1.16180E+06 0.00267088
1.16200E+06 0.00267084
1.16220E+06 0.00267080
1.16290E+06 0.00267068
1.16300E+06 0.00267066
1.16380E+06 0.00267052
1.16400E+06 0.00267048
1.16460E+06 0.00267037
1.16500E+06 0.00267030
1.16520E+06 0.00267026
1.16580E+06 0.00267016
1.16600E+06 0.00267012
1.16630E+06 0.00267007
1.16670E+06 0.00266999
1.16700E+06 0.00266994
1.16760E+06 0.00266983
1.16770E+06 0.00266981
1.16800E+06 0.00266976
1.16810E+06 0.00266974
1.16860E+06 0.00266965
1.16900E+06 0.00266958
1.16920E+06 0.00266954
1.17000E+06 0.00266940
1.17020E+06 0.00266936
1.17100E+06 0.00266922
1.17120E+06 0.00266918
1.17180E+06 0.00266908
1.17200E+06 0.00266904
1.17240E+06 0.00266897
1.17300E+06 0.00266886
1.17310E+06 0.00266884
1.17400E+06 0.00266868
1.17440E+06 0.00266861
1.17500E+06 0.00266850
1.17560E+06 0.00266839
1.17600E+06 0.00266832
1.17700E+06 0.00266814
1.17770E+06 0.00266801
1.17800E+06 0.00266796
1.17840E+06 0.00266789
1.17900E+06 0.00266778
1.17920E+06 0.00266774
1.17960E+06 0.00266767
1.18000E+06 0.00266760
1.18020E+06 0.00266756
1.18100E+06 0.00266742
1.18170E+06 0.00266729
1.18200E+06 0.00266724
1.18220E+06 0.00266720
1.18240E+06 0.00266717
1.18290E+06 0.00266708
1.18300E+06 0.00266706
1.18380E+06 0.00266692
1.18400E+06 0.00266688
1.18500E+06 0.00266670
1.18600E+06 0.00266652
1.18630E+06 0.00266647
1.18700E+06 0.00266634
1.18800E+06 0.00266616
1.18820E+06 0.00266612
1.18900E+06 0.00266598
1.19000E+06 0.00266580
1.19010E+06 0.00266578
1.19100E+06 0.00266562
1.19180E+06 0.00266548
1.19200E+06 0.00266544
1.19300E+06 0.00266526
1.19350E+06 0.00266517
1.19400E+06 0.00266508
1.19500E+06 0.00266490
1.19600E+06 0.00266472
1.19630E+06 0.00266467
1.19680E+06 0.00266458
1.19700E+06 0.00266454
1.19760E+06 0.00266443
1.19800E+06 0.00266436
1.19810E+06 0.00266434
1.19870E+06 0.00266423
1.19900E+06 0.00266418
1.19950E+06 0.00266409
1.20000E+06 0.00266400
1.20050E+06 0.00266391
1.20090E+06 0.00266384
1.20100E+06 0.00266382
1.20130E+06 0.00266377
1.20160E+06 0.00266371
1.20200E+06 0.00266364
1.20210E+06 0.00266362
1.20280E+06 0.00266350
1.20300E+06 0.00266346
1.20360E+06 0.00266335
1.20400E+06 0.00266328
1.20450E+06 0.00266319
1.20500E+06 0.00266310
1.20550E+06 0.00266301
1.20600E+06 0.00266292
1.20680E+06 0.00266278
1.20700E+06 0.00266274
1.20750E+06 0.00266265
1.20800E+06 0.00266256
1.20840E+06 0.00266249
1.20880E+06 0.00266242
1.20900E+06 0.00266238
1.20930E+06 0.00266233
1.20970E+06 0.00266225
1.21000E+06 0.00266220
1.21050E+06 0.00266211
1.21100E+06 0.00266202
1.21110E+06 0.00266200
1.21160E+06 0.00266191
1.21200E+06 0.00266184
1.21220E+06 0.00266180
1.21270E+06 0.00266171
1.21300E+06 0.00266166
1.21360E+06 0.00266155
1.21390E+06 0.00266150
1.21400E+06 0.00266148
1.21490E+06 0.00266132
1.21500E+06 0.00266130
1.21530E+06 0.00266125
1.21560E+06 0.00266119
1.21590E+06 0.00266114
1.21600E+06 0.00266112
1.21660E+06 0.00266101
1.21700E+06 0.00266094
1.21740E+06 0.00266087
1.21800E+06 0.00266076
1.21810E+06 0.00266074
1.21880E+06 0.00266062
1.21900E+06 0.00266058
1.21960E+06 0.00266047
1.21970E+06 0.00266045
1.22000E+06 0.00266040
1.22030E+06 0.00266035
1.22100E+06 0.00266022
1.22130E+06 0.00266017
1.22170E+06 0.00266009
1.22200E+06 0.00266004
1.22250E+06 0.00265995
1.22300E+06 0.00265986
1.22310E+06 0.00265984
1.22370E+06 0.00265973
1.22400E+06 0.00265968
1.22460E+06 0.00265957
1.22500E+06 0.00265950
1.22550E+06 0.00265941
1.22600E+06 0.00265932
1.22650E+06 0.00265923
1.22700E+06 0.00265914
1.22800E+06 0.00265896
1.22870E+06 0.00265883
1.22900E+06 0.00265878
1.22970E+06 0.00265865
1.23000E+06 0.00265860
1.23040E+06 0.00265853
1.23080E+06 0.00265846
1.23100E+06 0.00265842
1.23130E+06 0.00265837
1.23160E+06 0.00265831
1.23190E+06 0.00265826
1.23200E+06 0.00265824
1.23280E+06 0.00265810
1.23300E+06 0.00265806
1.23400E+06 0.00265788
1.23460E+06 0.00265777
1.23500E+06 0.00265770
1.23570E+06 0.00265757
1.23600E+06 0.00265752
1.23700E+06 0.00265734
1.23790E+06 0.00265718
1.23800E+06 0.00265716
1.23870E+06 0.00265703
1.23900E+06 0.00265698
1.23940E+06 0.00265691
1.23990E+06 0.00265682
1.24000E+06 0.00265680
1.24030E+06 0.00265675
1.24080E+06 0.00265666
1.24100E+06 0.00265662
1.24180E+06 0.00265648
1.24200E+06 0.00265644
1.24230E+06 0.00265639
1.24280E+06 0.00265630
1.24300E+06 0.00265626
1.24350E+06 0.00265617
1.24390E+06 0.00265610
1.24400E+06 0.00265608
1.24480E+06 0.00265594
1.24500E+06 0.00265590
1.24540E+06 0.00265583
1.24570E+06 0.00265577
1.24600E+06 0.00265572
1.24610E+06 0.00265570
1.24650E+06 0.00265563
1.24700E+06 0.00265554
1.24710E+06 0.00265552
1.24760E+06 0.00265543
1.24800E+06 0.00265536
1.24810E+06 0.00265534
1.24870E+06 0.00265523
1.24900E+06 0.00265518
1.24910E+06 0.00265516
1.25000E+06 0.00265500
1.25040E+06 0.00265493
1.25100E+06 0.00265482
1.25120E+06 0.00265478
1.25200E+06 0.00265464
1.25270E+06 0.00265451
1.25300E+06 0.00265446
1.25360E+06 0.00265435
1.25400E+06 0.00265428
1.25500E+06 0.00265410
1.25510E+06 0.00265408
1.25590E+06 0.00265394
1.25600E+06 0.00265392
1.25660E+06 0.00265381
1.25700E+06 0.00265374
1.25720E+06 0.00265370
1.25800E+06 0.00265356
1.25870E+06 0.00265343
1.25900E+06 0.00265338
1.26000E+06 0.00265320
1.26010E+06 0.00265318
1.26100E+06 0.00265302
1.26200E+06 0.00265284
1.26230E+06 0.00265279
1.26290E+06 0.00265268
1.26300E+06 0.00265266
1.26360E+06 0.00265255
1.26400E+06 0.00265248
1.26430E+06 0.00265243
1.26470E+06 0.00265235
1.26500E+06 0.00265230
1.26600E+06 0.00265212
1.26610E+06 0.00265210
1.26700E+06 0.00265194
1.26770E+06 0.00265181
1.26800E+06 0.00265176
1.26900E+06 0.00265158
1.27000E+06 0.00265140
1.27100E+06 0.00265122
1.27200E+06 0.00265104
1.27250E+06 0.00265095
1.27300E+06 0.00265086
1.27400E+06 0.00265068
1.27500E+06 0.00265050
1.27530E+06 0.00265045
1.27600E+06 0.00265032
1.27630E+06 0.00265027
1.27660E+06 0.00265021
1.27700E+06 0.00265014
1.27800E+06 0.00264996
1.27900E+06 0.00264978
1.28000E+06 0.00264960
1.28040E+06 0.00264953
1.28100E+06 0.00264942
1.28120E+06 0.00264938
1.28180E+06 0.00264928
1.28200E+06 0.00264924
1.28230E+06 0.00264919
1.28290E+06 0.00264908
1.28300E+06 0.00264906
1.28380E+06 0.00264892
1.28400E+06 0.00264888
1.28450E+06 0.00264879
1.28500E+06 0.00264870
1.28530E+06 0.00264865
1.28580E+06 0.00264856
1.28600E+06 0.00264852
1.28660E+06 0.00264841
1.28700E+06 0.00264834
1.28800E+06 0.00264816
1.28810E+06 0.00264814
1.28860E+06 0.00264805
1.28900E+06 0.00264798
1.28910E+06 0.00264796
1.28960E+06 0.00264787
1.29000E+06 0.00264780
1.29020E+06 0.00264776
1.29070E+06 0.00264767
1.29100E+06 0.00264762
1.29150E+06 0.00264753
1.29200E+06 0.00264744
1.29300E+06 0.00264726
1.29330E+06 0.00264721
1.29400E+06 0.00264708
1.29500E+06 0.00264690
1.29570E+06 0.00264677
1.29600E+06 0.00264672
1.29680E+06 0.00264658
1.29700E+06 0.00264654
1.29770E+06 0.00264641
1.29800E+06 0.00264636
1.29850E+06 0.00264627
1.29900E+06 0.00264618
1.29960E+06 0.00264607
1.30000E+06 0.00264600
1.30060E+06 0.00264589
1.30100E+06 0.00264582
1.30150E+06 0.00264573
1.30190E+06 0.00264566
1.30230E+06 0.00264559
1.30410E+06 0.00264526
1.30510E+06 0.00264508
1.30780E+06 0.00264460
1.30840E+06 0.00264449
1.30870E+06 0.00264443
1.30920E+06 0.00264434
1.31060E+06 0.00264409
1.31100E+06 0.00264402
1.31410E+06 0.00264346
1.31640E+06 0.00264305
1.31700E+06 0.00264294
1.31720E+06 0.00264290
1.31810E+06 0.00264274
1.31960E+06 0.00264247
1.32020E+06 0.00264236
1.32100E+06 0.00264222
1.32190E+06 0.00264206
1.32280E+06 0.00264190
1.32440E+06 0.00264161
1.32570E+06 0.00264137
1.32610E+06 0.00264130
1.32770E+06 0.00264101
1.32820E+06 0.00264092
1.33000E+06 0.00264060
1.33010E+06 0.00264058
1.33050E+06 0.00264051
1.33160E+06 0.00264031
1.33190E+06 0.00264026
1.33240E+06 0.00264017
1.33310E+06 0.00264004
1.33320E+06 0.00264002
1.33420E+06 0.00263984
1.33540E+06 0.00263963
1.33600E+06 0.00263952
1.33670E+06 0.00263939
1.33750E+06 0.00263925
1.33860E+06 0.00263905
1.33900E+06 0.00263898
1.33950E+06 0.00263889
1.34070E+06 0.00263867
1.34120E+06 0.00263858
1.34160E+06 0.00263851
1.34320E+06 0.00263822
1.34340E+06 0.00263819
1.34430E+06 0.00263803
1.34490E+06 0.00263792
1.34550E+06 0.00263781
1.34620E+06 0.00263768
1.34640E+06 0.00263765
1.34680E+06 0.00263758
1.34770E+06 0.00263741
1.34790E+06 0.00263738
1.34940E+06 0.00263711
1.34980E+06 0.00263704
1.35070E+06 0.00263687
1.35090E+06 0.00263684
1.35180E+06 0.00263668
1.35290E+06 0.00263648
1.35330E+06 0.00263641
1.35370E+06 0.00263633
1.35470E+06 0.00263615
1.35670E+06 0.00263579
1.35690E+06 0.00263576
1.35720E+06 0.00263570
1.35780E+06 0.00263560
1.35860E+06 0.00263545
1.35950E+06 0.00263529
1.36050E+06 0.00263511
1.36090E+06 0.00263504
1.36170E+06 0.00263489
1.36340E+06 0.00263459
1.36450E+06 0.00263439
1.36470E+06 0.00263435
1.36620E+06 0.00263408
1.36660E+06 0.00263401
1.36710E+06 0.00263392
1.36760E+06 0.00263383
1.36830E+06 0.00263371
1.36870E+06 0.00263363
1.36910E+06 0.00263356
1.37060E+06 0.00263329
1.37070E+06 0.00263327
1.37180E+06 0.00263308
1.37230E+06 0.00263299
1.37290E+06 0.00263288
1.37320E+06 0.00263282
1.37330E+06 0.00263281
1.37380E+06 0.00263272
1.37460E+06 0.00263257
1.37540E+06 0.00263243
1.37680E+06 0.00263218
1.37740E+06 0.00263207
1.37810E+06 0.00263194
1.37900E+06 0.00263178
1.37990E+06 0.00263162
1.38050E+06 0.00263151
1.38140E+06 0.00263135
1.38150E+06 0.00263133
1.38270E+06 0.00263111
1.38300E+06 0.00263106
1.38320E+06 0.00263102
1.38450E+06 0.00263079
1.38460E+06 0.00263077
1.38530E+06 0.00263065
1.38590E+06 0.00263054
1.38630E+06 0.00263047
1.38910E+06 0.00262996
1.38930E+06 0.00262993
1.38970E+06 0.00262985
1.39040E+06 0.00262973
1.39080E+06 0.00262966
1.39140E+06 0.00262955
1.39240E+06 0.00262937
1.39640E+06 0.00262865
1.39740E+06 0.00262847
1.39980E+06 0.00262804
1.40000E+06 0.00262800
1.40020E+06 0.00262796
1.40030E+06 0.00262795
1.40150E+06 0.00262773
1.40190E+06 0.00262766
1.40280E+06 0.00262750
1.40350E+06 0.00262737
1.40430E+06 0.00262723
1.40510E+06 0.00262708
1.40520E+06 0.00262706
1.40610E+06 0.00262690
1.40670E+06 0.00262679
1.40690E+06 0.00262676
1.40760E+06 0.00262663
1.40800E+06 0.00262656
1.40860E+06 0.00262645
1.40940E+06 0.00262631
1.40990E+06 0.00262622
1.41040E+06 0.00262613
1.41140E+06 0.00262595
1.41150E+06 0.00262593
1.41220E+06 0.00262580
1.41310E+06 0.00262564
1.41360E+06 0.00262555
1.41470E+06 0.00262535
1.41500E+06 0.00262530
1.41620E+06 0.00262508
1.41720E+06 0.00262490
1.41840E+06 0.00262469
1.41940E+06 0.00262451
1.42000E+06 0.00262440
1.42070E+06 0.00262427
1.42210E+06 0.00262402
1.42340E+06 0.00262379
1.42440E+06 0.00262361
1.42570E+06 0.00262337
1.42670E+06 0.00262319
1.42750E+06 0.00262305
1.42760E+06 0.00262303
1.42830E+06 0.00262291
1.42890E+06 0.00262280
1.42930E+06 0.00262273
1.42970E+06 0.00262265
1.43070E+06 0.00262247
1.43250E+06 0.00262215
1.43260E+06 0.00262213
1.43300E+06 0.00262206
1.43330E+06 0.00262201
1.43420E+06 0.00262184
1.43500E+06 0.00262170
1.43550E+06 0.00262161
1.43580E+06 0.00262156
1.43680E+06 0.00262138
1.43760E+06 0.00262123
1.43840E+06 0.00262109
1.43910E+06 0.00262096
1.43930E+06 0.00262093
1.44030E+06 0.00262075
1.44080E+06 0.00262066
1.44100E+06 0.00262062
1.44170E+06 0.00262049
1.44210E+06 0.00262042
1.44250E+06 0.00262035
1.44410E+06 0.00262006
1.44500E+06 0.00261990
1.44580E+06 0.00261976
1.44650E+06 0.00261963
1.44740E+06 0.00261947
1.44750E+06 0.00261945
1.44910E+06 0.00261916
1.44980E+06 0.00261904
1.45120E+06 0.00261878
1.45190E+06 0.00261866
1.45250E+06 0.00261855
1.45290E+06 0.00261848
1.45750E+06 0.00261765
1.45790E+06 0.00261758
1.45920E+06 0.00261734
1.45960E+06 0.00261727
1.46060E+06 0.00261709
1.46090E+06 0.00261704
1.46150E+06 0.00261693
1.46280E+06 0.00261670
1.46420E+06 0.00261644
1.46480E+06 0.00261634
1.46540E+06 0.00261623
1.46630E+06 0.00261607
1.46760E+06 0.00261583
1.46860E+06 0.00261565
1.46930E+06 0.00261553
1.47150E+06 0.00261513
1.47410E+06 0.00261466
1.47450E+06 0.00261459
1.47660E+06 0.00261421
1.47790E+06 0.00261398
1.47880E+06 0.00261382
1.48000E+06 0.00261360
1.48100E+06 0.00261342
1.48160E+06 0.00261331
1.48260E+06 0.00261313
1.48310E+06 0.00261304
1.48440E+06 0.00261281
1.48530E+06 0.00261265
1.48620E+06 0.00261248
1.48650E+06 0.00261243
1.48750E+06 0.00261225
1.48830E+06 0.00261211
1.48970E+06 0.00261185
1.49000E+06 0.00261180
1.49170E+06 0.00261149
1.49260E+06 0.00261133
1.49320E+06 0.00261122
1.49490E+06 0.00261092
1.49520E+06 0.00261086
1.49590E+06 0.00261074
1.49700E+06 0.00261054
1.49790E+06 0.00261038
1.49890E+06 0.00261020
1.49990E+06 0.00261002
1.50000E+06 0.00261000
1.50050E+06 0.00260991
1.50080E+06 0.00260986
1.50120E+06 0.00260978
1.50190E+06 0.00260966
1.50300E+06 0.00260946
1.50400E+06 0.00260928
1.50550E+06 0.00260901
1.50580E+06 0.00260896
1.50660E+06 0.00260881
1.50720E+06 0.00260870
1.50760E+06 0.00260863
1.50770E+06 0.00260861
1.50960E+06 0.00260827
1.51070E+06 0.00260807
1.51170E+06 0.00260789
1.51290E+06 0.00260768
1.51320E+06 0.00260762
1.51450E+06 0.00260739
1.51470E+06 0.00260735
1.51630E+06 0.00260707
1.51790E+06 0.00260678
1.51830E+06 0.00260671
1.51990E+06 0.00260642
1.52130E+06 0.00260617
1.52180E+06 0.00260608
1.52210E+06 0.00260602
1.52280E+06 0.00260590
1.52360E+06 0.00260575
1.52720E+06 0.00260510
1.52850E+06 0.00260487
1.53050E+06 0.00260451
1.53090E+06 0.00260444
1.53330E+06 0.00260401
1.53530E+06 0.00260365
1.53790E+06 0.00260318
1.53940E+06 0.00260291
1.54000E+06 0.00260280
1.54130E+06 0.00260257
1.54210E+06 0.00260242
1.54360E+06 0.00260215
1.54380E+06 0.00260212
1.54470E+06 0.00260195
1.54730E+06 0.00260149
1.54740E+06 0.00260147
1.54950E+06 0.00260109
1.55000E+06 0.00260100
1.55310E+06 0.00260044
1.55430E+06 0.00260023
1.55530E+06 0.00260005
1.55660E+06 0.00259981
1.55730E+06 0.00259969
1.55840E+06 0.00259949
1.56190E+06 0.00259886
1.56500E+06 0.00259830
1.56590E+06 0.00259814
1.56890E+06 0.00259760
1.57060E+06 0.00259729
1.57180E+06 0.00259708
1.57370E+06 0.00259673
1.57480E+06 0.00259654
1.57570E+06 0.00259637
1.57710E+06 0.00259612
1.57840E+06 0.00259589
1.57910E+06 0.00259576
1.58080E+06 0.00259546
1.58100E+06 0.00259542
1.58240E+06 0.00259517
1.58290E+06 0.00259508
1.58300E+06 0.00259506
1.58410E+06 0.00259486
1.58480E+06 0.00259474
1.58520E+06 0.00259466
1.58650E+06 0.00259443
1.58860E+06 0.00259405
1.58910E+06 0.00259396
1.59060E+06 0.00259369
1.59130E+06 0.00259357
1.59280E+06 0.00259330
1.59440E+06 0.00259301
1.59460E+06 0.00259297
1.59700E+06 0.00259254
1.59950E+06 0.00259209
1.60000E+06 0.00259200
1.60060E+06 0.00259189
1.60210E+06 0.00259162
1.60240E+06 0.00259157
1.60320E+06 0.00259142
1.60410E+06 0.00259126
1.60440E+06 0.00259121
1.60600E+06 0.00259092
1.60690E+06 0.00259076
1.60810E+06 0.00259054
1.60960E+06 0.00259027
1.61190E+06 0.00258986
1.61310E+06 0.00258964
1.61380E+06 0.00258952
1.61430E+06 0.00258943
1.61940E+06 0.00258851
1.61970E+06 0.00258845
1.62170E+06 0.00258809
1.62310E+06 0.00258784
1.62440E+06 0.00258761
1.62570E+06 0.00258737
1.62690E+06 0.00258716
1.62770E+06 0.00258701
1.62820E+06 0.00258692
1.62940E+06 0.00258671
1.62970E+06 0.00258665
1.63080E+06 0.00258646
1.63200E+06 0.00258624
1.63360E+06 0.00258595
1.63460E+06 0.00258577
1.63560E+06 0.00258559
1.63590E+06 0.00258554
1.63710E+06 0.00258532
1.63870E+06 0.00258503
1.63970E+06 0.00258485
1.64140E+06 0.00258455
1.64170E+06 0.00258449
1.64320E+06 0.00258422
1.64410E+06 0.00258406
1.64470E+06 0.00258395
1.64570E+06 0.00258377
1.64770E+06 0.00258341
1.64870E+06 0.00258323
1.65000E+06 0.00258300
1.65180E+06 0.00258268
1.65390E+06 0.00258230
1.65520E+06 0.00258206
1.65590E+06 0.00258194
1.65650E+06 0.00258183
1.65740E+06 0.00258167
1.65790E+06 0.00258158
1.65910E+06 0.00258136
1.66020E+06 0.00258116
1.66150E+06 0.00258093
1.66200E+06 0.00258084
1.66260E+06 0.00258073
1.66310E+06 0.00258064
1.66350E+06 0.00258057
1.66400E+06 0.00258048
1.66470E+06 0.00258035
1.66610E+06 0.00258010
1.66700E+06 0.00257994
1.66830E+06 0.00257971
1.66960E+06 0.00257947
1.67220E+06 0.00257900
1.67360E+06 0.00257875
1.67440E+06 0.00257861
1.67850E+06 0.00257787
1.68010E+06 0.00257758
1.68090E+06 0.00257744
1.68300E+06 0.00257706
1.68370E+06 0.00257693
1.68480E+06 0.00257674
1.68500E+06 0.00257670
1.68690E+06 0.00257636
1.68730E+06 0.00257629
1.68820E+06 0.00257612
1.68930E+06 0.00257593
1.69090E+06 0.00257564
1.69150E+06 0.00257553
1.69320E+06 0.00257522
1.69410E+06 0.00257506
1.69490E+06 0.00257492
1.69530E+06 0.00257485
1.69740E+06 0.00257447
1.69760E+06 0.00257443
1.69950E+06 0.00257409
1.70000E+06 0.00257400
1.70160E+06 0.00257371
1.70170E+06 0.00257369
1.70420E+06 0.00257324
1.70440E+06 0.00257321
1.70590E+06 0.00257294
1.70980E+06 0.00257224
1.71190E+06 0.00257186
1.71400E+06 0.00257148
1.71540E+06 0.00257123
1.71660E+06 0.00257101
1.71780E+06 0.00257080
1.71880E+06 0.00257062
1.72060E+06 0.00257029
1.72250E+06 0.00256995
1.72420E+06 0.00256964
1.72540E+06 0.00256943
1.72630E+06 0.00256927
1.72670E+06 0.00256919
1.72930E+06 0.00256873
1.73090E+06 0.00256844
1.73180E+06 0.00256828
1.73210E+06 0.00256822
1.73270E+06 0.00256811
1.73400E+06 0.00256788
1.73610E+06 0.00256750
1.73750E+06 0.00256725
1.73950E+06 0.00256689
1.73980E+06 0.00256684
1.74110E+06 0.00256660
1.74270E+06 0.00256631
1.74280E+06 0.00256630
1.74350E+06 0.00256617
1.74600E+06 0.00256572
1.74710E+06 0.00256552
1.74940E+06 0.00256511
1.75000E+06 0.00256500
1.75010E+06 0.00256498
1.75160E+06 0.00256471
1.75300E+06 0.00256446
1.75380E+06 0.00256432
1.75580E+06 0.00256396
1.75720E+06 0.00256370
1.75830E+06 0.00256351
1.75850E+06 0.00256347
1.75920E+06 0.00256334
1.75980E+06 0.00256324
1.76150E+06 0.00256293
1.76270E+06 0.00256271
1.76290E+06 0.00256268
1.76440E+06 0.00256241
1.76560E+06 0.00256219
1.76720E+06 0.00256190
1.76840E+06 0.00256169
1.76950E+06 0.00256149
1.77160E+06 0.00256111
1.77170E+06 0.00256109
1.77300E+06 0.00256086
1.77400E+06 0.00256068
1.77440E+06 0.00256061
1.77590E+06 0.00256034
1.77850E+06 0.00255987
1.77880E+06 0.00255982
1.78020E+06 0.00255956
1.78080E+06 0.00255946
1.78170E+06 0.00255929
1.78310E+06 0.00255904
1.78530E+06 0.00255865
1.78600E+06 0.00255852
1.78680E+06 0.00255838
1.78810E+06 0.00255814
1.78990E+06 0.00255782
1.79130E+06 0.00255757
1.79250E+06 0.00255735
1.79450E+06 0.00255699
1.79680E+06 0.00255658
1.79910E+06 0.00255616
1.80000E+06 0.00255600
1.80140E+06 0.00255575
1.80240E+06 0.00255557
1.80480E+06 0.00255514
1.80840E+06 0.00255449
1.80980E+06 0.00255424
1.81070E+06 0.00255407
1.81110E+06 0.00255400
1.81230E+06 0.00255379
1.81430E+06 0.00255343
1.81540E+06 0.00255323
1.81580E+06 0.00255316
1.81690E+06 0.00255296
1.81840E+06 0.00255269
1.82010E+06 0.00255238
1.82160E+06 0.00255211
1.82240E+06 0.00255197
1.82480E+06 0.00255154
1.82760E+06 0.00255103
1.82950E+06 0.00255069
1.83060E+06 0.00255049
1.83210E+06 0.00255022
1.83360E+06 0.00254995
1.83430E+06 0.00254983
1.83820E+06 0.00254912
1.83900E+06 0.00254898
1.84140E+06 0.00254855
1.84380E+06 0.00254812
1.84740E+06 0.00254747
1.84890E+06 0.00254720
1.85000E+06 0.00254700
1.85040E+06 0.00254693
1.85100E+06 0.00254682
1.85200E+06 0.00254664
1.85350E+06 0.00254637
1.85510E+06 0.00254608
1.85590E+06 0.00254594
1.85660E+06 0.00254581
1.85830E+06 0.00254551
1.85880E+06 0.00254542
1.86010E+06 0.00254518
1.86070E+06 0.00254507
1.86440E+06 0.00254441
1.86600E+06 0.00254412
1.86800E+06 0.00254376
1.86900E+06 0.00254358
1.87050E+06 0.00254331
1.87060E+06 0.00254329
1.87220E+06 0.00254300
1.87370E+06 0.00254273
1.87540E+06 0.00254243
1.87840E+06 0.00254189
1.88000E+06 0.00254160
1.88030E+06 0.00254155
1.88280E+06 0.00254110
1.88520E+06 0.00254066
1.88630E+06 0.00254047
1.88810E+06 0.00254014
1.88960E+06 0.00253987
1.89020E+06 0.00253976
1.89110E+06 0.00253960
1.89320E+06 0.00253922
1.89520E+06 0.00253886
1.89610E+06 0.00253870
1.89690E+06 0.00253856
1.89770E+06 0.00253841
1.89820E+06 0.00253832
1.89920E+06 0.00253814
1.90020E+06 0.00253796
1.90080E+06 0.00253786
1.90230E+06 0.00253759
1.90270E+06 0.00253751
1.90520E+06 0.00253706
1.90650E+06 0.00253683
1.90800E+06 0.00253656
1.90940E+06 0.00253631
1.91030E+06 0.00253615
1.91190E+06 0.00253586
1.91350E+06 0.00253557
1.91510E+06 0.00253528
1.91530E+06 0.00253525
1.91680E+06 0.00253498
1.91790E+06 0.00253478
1.91840E+06 0.00253469
1.92000E+06 0.00253440
1.92040E+06 0.00253433
1.92160E+06 0.00253411
1.92300E+06 0.00253386
1.92330E+06 0.00253381
1.92490E+06 0.00253352
1.92550E+06 0.00253341
1.92650E+06 0.00253323
1.92820E+06 0.00253292
1.93140E+06 0.00253235
1.93320E+06 0.00253202
1.93470E+06 0.00253175
1.93580E+06 0.00253156
1.93640E+06 0.00253145
1.93800E+06 0.00253116
1.93840E+06 0.00253109
1.93970E+06 0.00253085
1.94100E+06 0.00253062
1.94130E+06 0.00253057
1.94350E+06 0.00253017
1.94650E+06 0.00252963
1.94750E+06 0.00252945
1.94870E+06 0.00252923
1.94910E+06 0.00252916
1.95280E+06 0.00252850
1.95400E+06 0.00252828
1.95460E+06 0.00252817
1.95660E+06 0.00252781
1.95780E+06 0.00252760
1.95920E+06 0.00252734
1.95950E+06 0.00252729
1.96380E+06 0.00252652
1.96450E+06 0.00252639
1.96620E+06 0.00252608
1.96850E+06 0.00252567
1.96860E+06 0.00252565
1.96990E+06 0.00252542
1.97240E+06 0.00252497
1.97300E+06 0.00252486
1.97470E+06 0.00252455
1.97790E+06 0.00252398
1.97920E+06 0.00252374
1.98040E+06 0.00252353
1.98080E+06 0.00252346
1.98220E+06 0.00252320
1.98330E+06 0.00252301
1.98570E+06 0.00252257
1.98840E+06 0.00252209
1.99010E+06 0.00252178
1.99110E+06 0.00252160
1.99190E+06 0.00252146
1.99360E+06 0.00252115
1.99650E+06 0.00252063
1.99700E+06 0.00252054
1.99870E+06 0.00252023
1.99920E+06 0.00252014
2.00000E+06 0.00252000
2.00050E+06 0.00251928
2.00200E+06 0.00251712
2.00370E+06 0.00251467
2.00730E+06 0.00250949
2.00910E+06 0.00250690
2.01010E+06 0.00250546
2.01070E+06 0.00250459
2.01090E+06 0.00250430
2.01440E+06 0.00249926
2.01610E+06 0.00249682
2.01790E+06 0.00249422
2.01830E+06 0.00249365
2.01960E+06 0.00249178
2.02100E+06 0.00248976
2.02140E+06 0.00248918
2.02310E+06 0.00248674
2.02380E+06 0.00248573
2.02490E+06 0.00248414
2.02650E+06 0.00248184
2.03020E+06 0.00247651
2.03200E+06 0.00247392
2.03340E+06 0.00247190
2.03480E+06 0.00246989
2.03910E+06 0.00246370
2.04040E+06 0.00246182
2.04260E+06 0.00245866
2.04320E+06 0.00245779
2.04440E+06 0.00245606
2.04600E+06 0.00245376
2.04870E+06 0.00244987
2.05160E+06 0.00244570
2.05720E+06 0.00243763
2.05880E+06 0.00243533
2.06240E+06 0.00243014
2.06780E+06 0.00242237
2.06860E+06 0.00242122
2.07140E+06 0.00241718
2.07150E+06 0.00241704
2.07430E+06 0.00241301
2.07690E+06 0.00240926
2.07720E+06 0.00240883
2.08060E+06 0.00240394
2.08240E+06 0.00240134
2.08290E+06 0.00240062
2.08580E+06 0.00239645
2.09160E+06 0.00238810
2.09380E+06 0.00238493
2.09450E+06 0.00238392
2.09580E+06 0.00238205
2.09720E+06 0.00238003
2.09740E+06 0.00237974
2.09880E+06 0.00237773
2.10070E+06 0.00237499
2.10320E+06 0.00237139
2.10460E+06 0.00236938
2.10650E+06 0.00236664
2.10910E+06 0.00236290
2.11030E+06 0.00236117
2.11210E+06 0.00235858
2.11240E+06 0.00235814
2.11245E+06 0.00235807
2.11400E+06 0.00235584
2.11490E+06 0.00235454
2.11590E+06 0.00235310
2.11780E+06 0.00235037
2.11960E+06 0.00234778
2.12200E+06 0.00234432
2.12260E+06 0.00234346
2.12610E+06 0.00233842
2.12800E+06 0.00233568
2.12970E+06 0.00233323
2.13110E+06 0.00233122
2.13480E+06 0.00232589
2.13570E+06 0.00232459
2.13870E+06 0.00232027
2.14050E+06 0.00231768
2.14250E+06 0.00231480
2.14440E+06 0.00231206
2.14630E+06 0.00230933
2.14820E+06 0.00230659
2.15000E+06 0.00230400
2.15010E+06 0.00230386
2.15210E+06 0.00230098
2.15380E+06 0.00229853
2.15520E+06 0.00229651
2.15590E+06 0.00229550
2.16120E+06 0.00228787
2.16250E+06 0.00228600
2.16380E+06 0.00228413
2.16750E+06 0.00227880
2.16950E+06 0.00227592
2.17150E+06 0.00227304
2.17580E+06 0.00226685
2.17750E+06 0.00226440
2.17890E+06 0.00226238
2.18040E+06 0.00226022
2.18530E+06 0.00225317
2.19040E+06 0.00224582
2.19250E+06 0.00224280
2.19330E+06 0.00224165
2.19720E+06 0.00223603
2.20000E+06 0.00223200
2.20110E+06 0.00223042
2.20310E+06 0.00222754
2.20710E+06 0.00222178
2.21110E+06 0.00221602
2.21310E+06 0.00221314
2.21520E+06 0.00221011
2.21920E+06 0.00220435
2.22530E+06 0.00219557
2.22750E+06 0.00219240
2.23140E+06 0.00218678
2.23330E+06 0.00218405
2.23500E+06 0.00218160
2.23540E+06 0.00218102
2.23960E+06 0.00217498
2.24150E+06 0.00217224
2.24330E+06 0.00216965
2.24570E+06 0.00216619
2.24690E+06 0.00216446
2.24780E+06 0.00216317
2.24970E+06 0.00216043
2.25000E+06 0.00216000
2.25240E+06 0.00215654
2.25500E+06 0.00215280
2.25600E+06 0.00215136
2.26220E+06 0.00214243
2.26430E+06 0.00213941
2.26640E+06 0.00213638
2.26850E+06 0.00213336
2.27060E+06 0.00213034
2.27270E+06 0.00212731
2.27480E+06 0.00212429
2.27900E+06 0.00211824
2.28170E+06 0.00211435
2.28530E+06 0.00210917
2.28950E+06 0.00210312
2.29380E+06 0.00209693
2.29700E+06 0.00209232
2.29830E+06 0.00209045
2.30120E+06 0.00208627
2.30460E+06 0.00208138
2.30720E+06 0.00207763
2.31080E+06 0.00207245
2.31290E+06 0.00206942
2.31500E+06 0.00206640
2.31730E+06 0.00206309
2.32100E+06 0.00205776
2.32160E+06 0.00205690
2.32590E+06 0.00205070
2.32930E+06 0.00204581
2.33680E+06 0.00203501
2.33900E+06 0.00203184
2.34340E+06 0.00202550
2.34760E+06 0.00201946
2.35190E+06 0.00201326
2.35580E+06 0.00200765
2.35870E+06 0.00200347
2.36200E+06 0.00199872
2.36320E+06 0.00199699
2.36570E+06 0.00199339
2.36750E+06 0.00199080
2.37000E+06 0.00198720
2.37040E+06 0.00198662
2.37560E+06 0.00197914
2.37660E+06 0.00197770
2.37720E+06 0.00197683
2.37890E+06 0.00197438
2.38110E+06 0.00197122
2.38680E+06 0.00196301
2.38990E+06 0.00195854
2.39240E+06 0.00195494
2.39500E+06 0.00195120
2.39950E+06 0.00194472
2.40000E+06 0.00194400
2.40140E+06 0.00194198
2.40370E+06 0.00193867
2.40600E+06 0.00193536
2.41060E+06 0.00192874
2.41510E+06 0.00192226
2.41890E+06 0.00191678
2.42200E+06 0.00191232
2.42670E+06 0.00190555
2.43130E+06 0.00189893
2.43590E+06 0.00189230
2.43820E+06 0.00188899
2.44290E+06 0.00188222
2.44760E+06 0.00187546
2.45230E+06 0.00186869
2.45460E+06 0.00186538
2.45700E+06 0.00186192
2.45930E+06 0.00185861
2.46000E+06 0.00185760
2.46170E+06 0.00185515
2.47260E+06 0.00183946
2.48080E+06 0.00182765
2.48550E+06 0.00182088
2.48790E+06 0.00181742
2.49030E+06 0.00181397
2.49270E+06 0.00181051
2.49510E+06 0.00180706
2.49750E+06 0.00180360
2.49830E+06 0.00180245
2.50000E+06 0.00180000
2.50470E+06 0.00179333
2.51200E+06 0.00178296
2.51450E+06 0.00177941
2.51930E+06 0.00177259
2.52180E+06 0.00176904
2.52420E+06 0.00176564
2.52670E+06 0.00176209
2.53160E+06 0.00175513
2.53410E+06 0.00175158
2.53650E+06 0.00174817
2.54400E+06 0.00173752
2.54640E+06 0.00173411
2.54890E+06 0.00173056
2.55140E+06 0.00172701
2.55480E+06 0.00172218
2.55890E+06 0.00171636
2.56640E+06 0.00170571
2.56890E+06 0.00170216
2.57150E+06 0.00169847
2.57400E+06 0.00169492
2.57650E+06 0.00169137
2.57900E+06 0.00168782
2.58160E+06 0.00168413
2.58390E+06 0.00168086
2.59440E+06 0.00166595
2.60000E+06 0.00165800
2.60010E+06 0.00165786
2.60430E+06 0.00165189
2.60740E+06 0.00164749
2.61130E+06 0.00164195
2.61200E+06 0.00164096
2.61500E+06 0.00163670
2.61740E+06 0.00163329
2.62030E+06 0.00162917
2.62270E+06 0.00162577
2.62530E+06 0.00162207
2.63340E+06 0.00161057
2.64080E+06 0.00160006
2.64460E+06 0.00159467
2.65150E+06 0.00158487
2.65420E+06 0.00158104
2.65960E+06 0.00157337
2.66210E+06 0.00156982
2.66440E+06 0.00156655
2.66990E+06 0.00155874
2.67300E+06 0.00155434
2.67580E+06 0.00155036
2.67780E+06 0.00154752
2.68410E+06 0.00153858
2.68850E+06 0.00153233
2.69140E+06 0.00152821
2.70000E+06 0.00151600
2.70140E+06 0.00151401
2.70560E+06 0.00150805
2.70590E+06 0.00150762
2.70780E+06 0.00150492
2.71240E+06 0.00149839
2.71610E+06 0.00149314
2.71890E+06 0.00148916
2.72480E+06 0.00148078
2.72960E+06 0.00147397
2.73790E+06 0.00146218
2.74070E+06 0.00145821
2.74350E+06 0.00145423
2.75000E+06 0.00144500
2.75460E+06 0.00143847
2.75740E+06 0.00143449
2.76020E+06 0.00143052
2.76580E+06 0.00142256
2.76870E+06 0.00141845
2.77430E+06 0.00141049
2.77710E+06 0.00140652
2.78000E+06 0.00140240
2.78270E+06 0.00139857
2.78860E+06 0.00139019
2.80000E+06 0.00137400
2.80290E+06 0.00136988
2.80590E+06 0.00136562
2.80840E+06 0.00136207
2.81410E+06 0.00135398
2.82020E+06 0.00134532
2.82830E+06 0.00133381
2.83480E+06 0.00132458
2.84340E+06 0.00131237
2.84920E+06 0.00130414
2.85220E+06 0.00129988
2.85510E+06 0.00129576
2.85810E+06 0.00129150
2.86130E+06 0.00128695
2.86390E+06 0.00128326
2.87030E+06 0.00127417
2.87310E+06 0.00127020
2.87900E+06 0.00126182
2.88190E+06 0.00125770
2.88450E+06 0.00125401
2.89000E+06 0.00124620
2.89390E+06 0.00124066
2.90000E+06 0.00123200
2.90290E+06 0.00122788
2.90590E+06 0.00122362
2.91200E+06 0.00121496
2.91500E+06 0.00121070
2.91810E+06 0.00120630
2.92470E+06 0.00119693
2.92840E+06 0.00119167
2.93340E+06 0.00118457
2.93950E+06 0.00117591
2.94260E+06 0.00117151
2.95000E+06 0.00116100
2.95810E+06 0.00114950
2.96120E+06 0.00114510
2.96440E+06 0.00114055
2.96550E+06 0.00113899
2.97370E+06 0.00112735
2.98000E+06 0.00111840
2.98330E+06 0.00111371
2.98870E+06 0.00110605
2.99150E+06 0.00110207
2.99310E+06 0.00109980
2.99510E+06 0.00109696
3.00000E+06 0.00109000
3.00500E+06 0.00108885
3.00780E+06 0.00108821
3.01000E+06 0.00108770
3.01160E+06 0.00108733
3.01340E+06 0.00108692
3.01490E+06 0.00108657
3.01810E+06 0.00108584
3.02130E+06 0.00108510
3.02460E+06 0.00108434
3.03750E+06 0.00108138
3.04010E+06 0.00108078
3.05040E+06 0.00107841
3.05370E+06 0.00107765
3.05700E+06 0.00107689
3.06020E+06 0.00107615
3.06350E+06 0.00107540
3.06720E+06 0.00107454
3.07000E+06 0.00107390
3.07010E+06 0.00107388
3.07340E+06 0.00107312
3.08000E+06 0.00107160
3.08330E+06 0.00107084
3.08660E+06 0.00107008
3.08990E+06 0.00106932
3.09320E+06 0.00106856
3.09990E+06 0.00106702
3.10330E+06 0.00106624
3.10660E+06 0.00106548
3.11330E+06 0.00106394
3.11670E+06 0.00106316
3.12000E+06 0.00106240
3.12340E+06 0.00106162
3.13360E+06 0.00105927
3.13700E+06 0.00105849
3.14040E+06 0.00105771
3.14720E+06 0.00105614
3.15060E+06 0.00105536
3.15400E+06 0.00105458
3.15740E+06 0.00105380
3.16090E+06 0.00105299
3.16430E+06 0.00105221
3.17120E+06 0.00105062
3.17500E+06 0.00104975
3.17630E+06 0.00104945
3.17800E+06 0.00104906
3.17930E+06 0.00104876
3.19200E+06 0.00104584
3.19550E+06 0.00104504
3.19900E+06 0.00104423
3.20000E+06 0.00104400
3.20250E+06 0.00104343
3.20600E+06 0.00104262
3.20950E+06 0.00104182
3.21660E+06 0.00104018
3.22010E+06 0.00103938
3.22370E+06 0.00103855
3.23080E+06 0.00103692
3.23430E+06 0.00103611
3.23790E+06 0.00103528
3.24140E+06 0.00103448
3.24500E+06 0.00103365
3.24860E+06 0.00103282
3.25220E+06 0.00103199
3.25940E+06 0.00103034
3.26300E+06 0.00102951
3.26660E+06 0.00102868
3.27030E+06 0.00102783
3.27360E+06 0.00102707
3.27740E+06 0.00102620
3.28110E+06 0.00102535
3.29200E+06 0.00102284
3.29560E+06 0.00102201
3.29930E+06 0.00102116
3.30000E+06 0.00102100
3.30300E+06 0.00102031
3.30660E+06 0.00101948
3.31770E+06 0.00101693
3.32140E+06 0.00101608
3.32880E+06 0.00101438
3.33250E+06 0.00101353
3.33630E+06 0.00101265
3.34000E+06 0.00101180
3.34370E+06 0.00101095
3.34750E+06 0.00101008
3.35120E+06 0.00100922
3.35870E+06 0.00100750
3.36630E+06 0.00100575
3.37760E+06 0.00100315
3.39290E+06 0.000999633
3.39670E+06 0.000998759
3.40000E+06 0.000998000
3.40440E+06 0.000996988
3.40820E+06 0.000996114
3.41210E+06 0.000995217
3.41590E+06 0.000994343
3.42800E+06 0.000991560
3.43080E+06 0.000990916
3.43930E+06 0.000988961
3.44310E+06 0.000988087
3.44700E+06 0.000987190
3.44850E+06 0.000986845
3.44910E+06 0.000986707
3.45880E+06 0.000984476
3.46670E+06 0.000982659
3.47070E+06 0.000981739
3.48210E+06 0.000979117
3.50000E+06 0.000975000
3.50600E+06 0.000973620
3.50710E+06 0.000973367
3.51120E+06 0.000972424
3.51200E+06 0.000972240
3.51460E+06 0.000971642
3.52260E+06 0.000969802
3.54300E+06 0.000965110
3.54700E+06 0.000964190
3.55110E+06 0.000963247
3.56340E+06 0.000960418
3.58140E+06 0.000956278
3.60000E+06 0.000952000
3.60370E+06 0.000951149
3.61750E+06 0.000947975
3.62180E+06 0.000946986
3.62600E+06 0.000946020
3.63020E+06 0.000945054
3.63440E+06 0.000944088
3.64720E+06 0.000941144
3.65150E+06 0.000940155
3.65570E+06 0.000939189
3.66400E+06 0.000937280
3.66430E+06 0.000937211
3.66700E+06 0.000936590
3.66860E+06 0.000936222
3.66900E+06 0.000936130
3.67200E+06 0.000935440
3.67290E+06 0.000935233
3.67720E+06 0.000934244
3.68150E+06 0.000933255
3.69450E+06 0.000930265
3.69890E+06 0.000929253
3.70000E+06 0.000929000
3.70320E+06 0.000928264
3.71200E+06 0.000926240
3.73840E+06 0.000920168
3.74280E+06 0.000919156
3.74720E+06 0.000918144
3.75170E+06 0.000917109
3.75610E+06 0.000916097
3.76060E+06 0.000915062
3.76500E+06 0.000914050
3.77000E+06 0.000912900
3.77400E+06 0.000911980
3.77850E+06 0.000910945
3.78300E+06 0.000909910
3.79200E+06 0.000907840
3.80000E+06 0.000906000
3.80100E+06 0.000905770
3.81010E+06 0.000903677
3.81400E+06 0.000902780
3.82370E+06 0.000900549
3.83000E+06 0.000899100
3.83760E+06 0.000897352
3.84220E+06 0.000896294
3.85140E+06 0.000894178
3.86530E+06 0.000890981
3.87470E+06 0.000888819
3.87930E+06 0.000887761
3.88600E+06 0.000886220
3.89340E+06 0.000884518
3.89700E+06 0.000883690
3.90000E+06 0.000883000
3.90110E+06 0.000882747
3.90280E+06 0.000882356
3.91230E+06 0.000880171
3.92170E+06 0.000878009
3.92500E+06 0.000877250
3.92650E+06 0.000876905
3.92660E+06 0.000876882
3.93130E+06 0.000875801
3.93600E+06 0.000874720
3.94080E+06 0.000873616
3.94560E+06 0.000872512
3.96000E+06 0.000869200
4.00000E+06 0.000860000
4.00870E+06 0.000859043
4.01860E+06 0.000857954
4.02350E+06 0.000857415
4.02840E+06 0.000856876
4.03830E+06 0.000855787
4.04330E+06 0.000855237
4.04830E+06 0.000854687
4.05330E+06 0.000854137
4.06330E+06 0.000853037
4.07330E+06 0.000851937
4.07930E+06 0.000851277
4.09350E+06 0.000849715
4.10000E+06 0.000849000
4.10150E+06 0.000848835
4.10880E+06 0.000848032
4.11800E+06 0.000847020
4.12200E+06 0.000846580
4.12410E+06 0.000846349
4.14000E+06 0.000844600
4.14990E+06 0.000843511
4.16540E+06 0.000841806
4.17200E+06 0.000841080
4.17390E+06 0.000840871
4.17590E+06 0.000840651
4.18630E+06 0.000839507
4.18950E+06 0.000839155
4.19160E+06 0.000838924
4.19430E+06 0.000838627
4.19680E+06 0.000838352
4.20000E+06 0.000838000
4.20210E+06 0.000837769
4.21800E+06 0.000836020
4.23390E+06 0.000834271
4.24460E+06 0.000833094
4.25000E+06 0.000832500
4.26610E+06 0.000830729
4.27150E+06 0.000830135
4.27690E+06 0.000829541
4.28230E+06 0.000828947
4.28770E+06 0.000828353
4.29320E+06 0.000827748
4.29860E+06 0.000827154
4.30000E+06 0.000827000
4.30960E+06 0.000825944
4.31500E+06 0.000825350
4.32050E+06 0.000824745
4.32600E+06 0.000824140
4.34000E+06 0.000822600
4.34820E+06 0.000821698
4.35370E+06 0.000821093
4.35930E+06 0.000820477
4.37000E+06 0.000819300
4.37550E+06 0.000818695
4.37560E+06 0.000818684
4.37770E+06 0.000818453
4.37960E+06 0.000818244
4.38170E+06 0.000818013
4.39290E+06 0.000816781
4.40000E+06 0.000816000
4.41740E+06 0.000814086
4.42690E+06 0.000813041
4.43260E+06 0.000812414
4.43830E+06 0.000811787
4.44410E+06 0.000811149
4.44980E+06 0.000810522
4.45560E+06 0.000809884
4.46130E+06 0.000809257
4.46710E+06 0.000808619
4.46830E+06 0.000808487
4.47430E+06 0.000807827
4.47440E+06 0.000807816
4.47870E+06 0.000807343
4.48040E+06 0.000807156
4.49610E+06 0.000805429
4.49770E+06 0.000805253
4.50000E+06 0.000805000
4.51550E+06 0.000803295
4.53020E+06 0.000801678
4.53340E+06 0.000801326
4.53840E+06 0.000800776
4.54420E+06 0.000800138
4.57250E+06 0.000797025
4.57720E+06 0.000796508
4.58640E+06 0.000795496
4.59120E+06 0.000794968
4.59150E+06 0.000794935
4.60000E+06 0.000794000
4.60580E+06 0.000793362
4.61280E+06 0.000792592
4.61540E+06 0.000792306
4.62060E+06 0.000791734
4.62500E+06 0.000791250
4.63950E+06 0.000789655
4.64430E+06 0.000789127
4.65000E+06 0.000788500
4.65890E+06 0.000787521
4.67350E+06 0.000785915
4.69320E+06 0.000783748
4.70000E+06 0.000783000
4.70280E+06 0.000782692
4.71290E+06 0.000781581
4.72550E+06 0.000780195
4.74780E+06 0.000777742
4.75000E+06 0.000777500
4.76280E+06 0.000776092
4.77290E+06 0.000774981
4.79320E+06 0.000772748
4.80000E+06 0.000772000
4.80340E+06 0.000771626
4.83000E+06 0.000768700
4.83920E+06 0.000767688
4.84440E+06 0.000767116
4.87030E+06 0.000764267
4.88600E+06 0.000762540
4.89120E+06 0.000761968
4.90000E+06 0.000761000
4.90170E+06 0.000760813
4.92280E+06 0.000758492
4.94400E+06 0.000756160
4.95470E+06 0.000754983
4.96000E+06 0.000754400
4.98690E+06 0.000751441
4.99230E+06 0.000750847
5.00000E+06 0.000750000
5.00850E+06 0.000749618
5.01390E+06 0.000749375
5.01940E+06 0.000749127
5.05220E+06 0.000747651
5.05770E+06 0.000747404
5.09090E+06 0.000745910
5.10770E+06 0.000745154
5.11880E+06 0.000744654
5.13570E+06 0.000743894
5.14700E+06 0.000743385
5.15270E+06 0.000743129
5.15830E+06 0.000742877
5.17540E+06 0.000742107
5.19250E+06 0.000741338
5.20000E+06 0.000741000
5.20400E+06 0.000740820
5.21550E+06 0.000740303
5.22130E+06 0.000740042
5.24450E+06 0.000738998
5.24880E+06 0.000738804
5.24882E+06 0.000738803
5.25000E+06 0.000738750
5.25030E+06 0.000738737
5.25620E+06 0.000738471
5.28550E+06 0.000737153
5.30000E+06 0.000736500
5.30320E+06 0.000736356
5.30910E+06 0.000736091
5.31500E+06 0.000735825
5.35680E+06 0.000733944
5.38090E+06 0.000732860
5.40000E+06 0.000732000
5.42350E+06 0.000730943
5.44800E+06 0.000729840
5.50000E+06 0.000727500
5.54800E+06 0.000725340
5.58610E+06 0.000723626
5.60000E+06 0.000723000
5.61830E+06 0.000722177
5.63120E+06 0.000721596
5.63770E+06 0.000721304
5.64410E+06 0.000721016
5.65660E+06 0.000720453
5.69650E+06 0.000718658
5.73530E+06 0.000716912
5.74290E+06 0.000716570
5.75000E+06 0.000716250
5.76290E+06 0.000715670
5.78980E+06 0.000714459
5.80000E+06 0.000714000
5.80340E+06 0.000713847
5.81690E+06 0.000713240
5.83060E+06 0.000712623
5.83740E+06 0.000712317
5.85790E+06 0.000711395
5.87170E+06 0.000710774
5.88550E+06 0.000710153
5.90630E+06 0.000709217
5.93420E+06 0.000707961
5.94130E+06 0.000707642
5.95530E+06 0.000707012
5.96940E+06 0.000706377
6.00000E+06 0.000705000
6.03360E+06 0.000703488
6.04790E+06 0.000702845
6.05700E+06 0.000702435
6.08410E+06 0.000701216
6.09140E+06 0.000700887
6.09870E+06 0.000700559
6.11330E+06 0.000699902
6.12070E+06 0.000699569
6.13540E+06 0.000698907
6.15750E+06 0.000697913
6.17980E+06 0.000696909
6.19470E+06 0.000696239
6.20000E+06 0.000696000
6.22470E+06 0.000694889
6.27780E+06 0.000692499
6.30070E+06 0.000691469
6.30840E+06 0.000691122
6.31610E+06 0.000690776
6.32380E+06 0.000690429
6.34000E+06 0.000689700
6.37810E+06 0.000687986
6.39370E+06 0.000687284
6.40000E+06 0.000687000
6.40160E+06 0.000686928
6.42520E+06 0.000685866
6.44100E+06 0.000685155
6.45690E+06 0.000684440
6.48080E+06 0.000683364
6.50000E+06 0.000682500
6.50490E+06 0.000682280
6.52910E+06 0.000681191
6.54000E+06 0.000680700
6.56150E+06 0.000679733
6.58610E+06 0.000678626
6.60000E+06 0.000678000
6.62720E+06 0.000676776
6.66880E+06 0.000674904
6.70000E+06 0.000673500
6.71070E+06 0.000673019
6.74000E+06 0.000671700
6.80000E+06 0.000669000
6.83030E+06 0.000667637
6.88260E+06 0.000665283
6.92650E+06 0.000663308
6.95310E+06 0.000662111
6.97100E+06 0.000661305
7.00000E+06 0.000660000
7.01580E+06 0.000659763
7.04290E+06 0.000659357
7.06110E+06 0.000659084
7.07930E+06 0.000658811
7.13000E+06 0.000658050
7.17160E+06 0.000657426
7.28000E+06 0.000655800
7.37130E+06 0.000654431
7.40000E+06 0.000654000
7.42010E+06 0.000653699
7.50000E+06 0.000652500
7.59980E+06 0.000651003
7.62020E+06 0.000650697
7.74720E+06 0.000648792
7.75700E+06 0.000648645
7.77850E+06 0.000648323
7.77851E+06 0.000648322
7.87000E+06 0.000646950
8.00000E+06 0.000645000
8.10200E+06 0.000643470
8.10250E+06 0.000643463
8.21440E+06 0.000641784
8.32000E+06 0.000640200
8.50000E+06 0.000637500
8.66660E+06 0.000635001
9.00000E+06 0.000630000
9.50000E+06 0.000632500
1.00000E+07 0.000635000
1.02190E+07 0.000636095
1.03640E+07 0.000636820
1.03740E+07 0.000636870
1.04200E+07 0.000637100
1.05000E+07 0.000637500
1.06000E+07 0.000638000
1.07200E+07 0.000638600
1.07230E+07 0.000638615
1.08000E+07 0.000639000
1.10000E+07 0.000640000
1.13000E+07 0.000652000
1.13990E+07 0.000655960
1.14020E+07 0.000656080
1.14060E+07 0.000656240
1.15000E+07 0.000660000
1.16000E+07 0.000664000
1.17000E+07 0.000668000
1.18000E+07 0.000672000
1.19000E+07 0.000676000
1.20000E+07 0.000680000
1.21430E+07 0.000685720
1.21440E+07 0.000685760
1.21480E+07 0.000685920
1.21610E+07 0.000686440
1.21611E+07 0.000686445
1.22000E+07 0.000688000
1.23000E+07 0.000692000
1.24000E+07 0.000696000
1.25000E+07 0.000700000
1.26000E+07 0.000704000
1.28000E+07 0.000712000
1.30000E+07 0.000720000
1.32000E+07 0.000735000
1.34000E+07 0.000750000
1.35000E+07 0.000757500
1.36000E+07 0.000765000
1.36200E+07 0.000766500
1.38000E+07 0.000780000
1.40000E+07 0.000795000
1.42000E+07 0.000810000
1.45000E+07 0.000832500
1.46000E+07 0.000840000
1.50000E+07 0.000870000
1.53000E+07 0.000889500
1.55000E+07 0.000902500
1.56000E+07 0.000909000
1.60000E+07 0.000935000
1.65000E+07 0.000967500
1.70000E+07 0.00100000
1.75000E+07 0.00100000
1.80000E+07 0.00100000
1.85000E+07 0.000975000
1.90000E+07 0.000950000
1.95000E+07 0.000925000
2.00000E+07 0.000900000