Ni-62(n,g) ENDF/B-VII.1
Energy(eV) XS(b)
1.00000E-05 749.423
1.25000E-05 670.305
1.50000E-05 611.902
2.00000E-05 529.922
2.75000E-05 451.919
3.50000E-05 400.584
4.25000E-05 363.524
5.00000E-05 335.152
6.25000E-05 299.769
7.50000E-05 273.651
0.000100000 236.989
0.000125000 211.969
0.000150000 193.500
0.000200000 167.576
0.000275000 142.909
0.000350000 126.676
0.000425000 114.956
0.000500000 105.985
0.000625000 94.7954
0.000750000 86.5360
0.00100000 74.9424
0.00125000 67.0305
0.00150000 61.1902
0.00200000 52.9923
0.00275000 45.1920
0.00350000 40.0584
0.00425000 36.3524
0.00500000 33.5153
0.00625000 29.9770
0.00750000 27.3652
0.0100000 23.6990
0.0125000 21.1970
0.0150000 19.3502
0.0200000 16.7578
0.0253000 14.8995
0.0314750 13.3583
0.0376500 12.2138
0.0500000 10.5987
0.0625000 9.47979
0.0750000 8.65387
0.100000 7.49455
0.125000 6.70340
0.150000 6.11941
0.200000 5.29968
0.275000 4.51972
0.350000 4.00644
0.500000 3.35224
0.750000 2.73739
1.00000 2.37090
1.50000 1.93625
2.00000 1.67720
2.75000 1.43078
3.50000 1.26866
5.00000 1.06213
7.50000 0.868157
10.0000 0.752657
15.0000 0.615869
20.0000 0.534511
27.5000 0.457314
35.0000 0.406685
50.0000 0.342480
75.0000 0.282700
100.000 0.247523
150.000 0.206617
200.000 0.182976
275.000 0.161431
350.000 0.148118
500.000 0.133011
750.000 0.122875
999.999 0.121314
1000.00 0.121314
1000.01 0.121314
1000.02 0.121314
1000.03 0.121314
1000.06 0.121314
1000.12 0.121314
1000.25 0.121315
1000.49 0.121316
1000.98 0.121319
1001.96 0.121323
1003.91 0.121334
1007.81 0.121355
1015.63 0.121400
1031.25 0.121505
1062.50 0.121768
1125.00 0.122503
1250.00 0.124755
1500.00 0.132192
2000.00 0.159505
2399.68 0.197290
2799.35 0.257880
3199.03 0.356079
3598.70 0.512001
4000.00 0.719389
4000.00 0.719390
4000.01 0.719392
4000.01 0.719394
4000.02 0.719398
4000.03 0.719406
4000.07 0.719423
4000.13 0.719456
4000.27 0.719523
4000.53 0.719656
4001.06 0.719921
4002.11 0.720452
4004.22 0.721511
4008.44 0.723623
4016.88 0.727820
4033.75 0.736095
4067.50 0.752097
4135.00 0.781321
4270.00 0.823851
4540.00 0.817262
5000.00 0.581181
5481.30 0.337032
5909.85 0.209534
6338.41 0.137116
6766.96 0.0944961
7195.51 0.0680700
7624.06 0.0508525
8052.62 0.0391458
8481.17 0.0309103
8695.44 0.0277521
8802.58 0.0265547
8856.15 0.0267817
8882.94 0.0299965
8896.33 0.0436530
8899.68 0.0575884
8903.02 0.0962061
8904.70 0.148094
8906.37 0.287063
8907.21 0.466029
8907.63 0.633288
8908.05 0.915607
8908.47 1.45043
8908.67 1.91452
8908.88 2.64210
8909.09 3.87670
8909.30 6.16118
8909.41 8.09545
8909.51 10.9557
8909.62 15.3923
8909.72 22.1607
8909.86 35.4433
8910.00 44.2988
8910.14 35.4434
8910.28 22.1610
8910.41 14.3423
8910.53 9.71363
8910.65 6.88284
8910.78 5.10171
8911.03 3.08808
8911.28 2.06186
8911.52 1.47060
8911.77 1.10225
8912.27 0.688458
8913.27 0.348168
8914.26 0.215459
8916.25 0.113606
8918.24 0.0759575
8922.22 0.0480626
8926.20 0.0379991
8942.11 0.0279506
8973.94 0.0250772
9037.60 0.0237701
9164.92 0.0224884
9292.24 0.0224461
9324.08 0.0234196
9355.91 0.0267462
9371.82 0.0316374
9387.74 0.0457352
9395.69 0.0653389
9399.67 0.0848544
9403.65 0.120308
9407.63 0.195275
9409.62 0.268897
9411.61 0.400668
9412.60 0.509686
9413.60 0.673097
9414.59 0.934050
9415.59 1.38800
9416.58 2.28617
9417.08 3.10499
9417.58 4.45649
9418.07 6.92203
9418.32 8.98528
9418.57 12.0807
9418.82 17.0352
9419.07 25.4611
9419.32 41.0661
9419.57 71.1445
9419.78 113.937
9420.00 142.294
9420.22 113.724
9420.44 71.1431
9420.58 51.5668
9420.72 38.2104
9421.00 22.6135
9421.28 14.6639
9421.57 10.1964
9421.85 7.47169
9422.13 5.69922
9422.70 3.62097
9423.27 2.50053
9423.83 1.83030
9424.96 1.10414
9426.10 0.740584
9427.23 0.533181
9428.36 0.403858
9429.49 0.317845
9431.76 0.214158
9434.02 0.156428
9438.55 0.0977539
9443.08 0.0700340
9447.60 0.0547725
9456.66 0.0393944
9474.77 0.0281759
9492.88 0.0241139
9565.33 0.0197241
9710.22 0.0176638
10000.0 0.0154833
10961.2 0.0107947
11922.3 0.00790480
13844.7 0.00468268
15767.0 0.00304972
16728.2 0.00253787
17208.7 0.00237351
17449.0 0.00247791
17569.2 0.00323617
17629.3 0.00639403
17644.3 0.00964460
17659.3 0.0187850
17666.8 0.0313066
17674.3 0.0658727
17678.1 0.112249
17680.0 0.157107
17681.8 0.235538
17683.7 0.393810
17684.6 0.540889
17685.6 0.785112
17686.5 1.24623
17687.0 1.64350
17687.5 2.26049
17687.9 3.28681
17688.4 5.15199
17688.6 6.72663
17688.9 8.93010
17689.1 12.1925
17689.3 17.0139
17689.7 27.2235
17690.0 34.0302
17690.3 27.2224
17690.7 17.0133
17691.0 11.2123
17691.3 7.77087
17691.5 5.61365
17691.8 4.20990
17692.4 2.56967
17692.9 1.72966
17693.5 1.23280
17694.1 0.926012
17695.2 0.574135
17696.3 0.390269
17697.5 0.282488
17699.7 0.168176
17702.0 0.111577
17704.2 0.0797534
17708.7 0.0469112
17717.8 0.0225359
17726.8 0.0137447
17744.8 0.00733937
17762.9 0.00505929
17798.9 0.00340600
17835.0 0.00281464
17907.2 0.00237363
17979.4 0.00220244
18268.0 0.00196473
18845.3 0.00175558
20000.0 0.00146159
22229.8 0.00107345
23344.7 0.000937563
23902.2 0.000888960
24180.9 0.000903969
24320.2 0.00106019
24389.9 0.00172733
24424.8 0.00438299
24442.2 0.0147305
24450.9 0.0539108
24453.1 0.0923743
24455.2 0.194703
24456.3 0.325388
24457.4 0.649592
24458.0 1.03350
24458.5 1.85685
24458.8 2.67873
24459.1 4.14989
24459.3 7.06495
24459.5 9.71319
24459.6 13.4904
24459.8 21.6911
24460.0 26.9809
24460.2 21.6909
24460.4 13.4903
24460.6 7.88991
24460.9 4.89796
24461.1 3.27358
24461.3 2.32202
24461.8 1.32875
24462.2 0.854851
24463.2 0.436831
24464.1 0.264075
24465.9 0.126510
24467.8 0.0743054
24475.1 0.0202447
24489.8 0.00581358
24519.1 0.00208256
24577.9 0.00112989
24695.4 0.000880589
24930.3 0.000800421
25400.2 0.000747578
26340.0 0.000677612
27279.9 0.000625234
27749.8 0.000618418
27984.7 0.000673998
28102.2 0.000930010
28160.9 0.00196211
28190.3 0.00604390
28205.0 0.0219380
28212.3 0.0821622
28214.2 0.141472
28216.0 0.298290
28216.9 0.499529
28217.8 1.00002
28218.3 1.58686
28218.8 2.87398
28219.0 4.17176
28219.2 6.51933
28219.4 11.2353
28219.6 15.1593
28219.7 20.8571
28219.8 33.3714
28220.0 41.7143
28220.2 33.3713
28220.3 20.8571
28220.5 13.9370
28220.6 9.88780
28220.9 5.52723
28221.1 3.46343
28221.4 2.35544
28221.9 1.28179
28222.4 0.801530
28223.5 0.395002
28224.5 0.235287
28226.6 0.110662
28228.7 0.0641980
28237.1 0.0171649
28253.8 0.00481447
28287.2 0.00164891
28354.0 0.000847040
28487.6 0.000645667
28754.9 0.000613492
29022.1 0.000757488
29155.8 0.00140710
29222.6 0.00400680
29256.0 0.0142049
29264.3 0.0245535
29272.7 0.0532983
29276.9 0.0921721
29281.0 0.196865
29283.1 0.333451
29284.2 0.463023
29285.2 0.682665
29286.3 1.10956
29286.8 1.48467
29287.3 2.08365
29287.8 3.12103
29288.4 5.12809
29288.6 6.89170
29288.9 9.64003
29289.1 14.1041
29289.4 21.6352
29289.7 34.7316
29290.0 43.2720
29290.3 34.7309
29290.6 21.6348
29291.0 12.3000
29291.3 7.51183
29291.7 4.96757
29292.0 3.53013
29292.4 2.60612
29292.7 2.01195
29293.5 1.29142
29294.2 0.896739
29294.9 0.658158
29296.3 0.397169
29299.1 0.189705
29302.0 0.110790
29307.7 0.0513130
29313.3 0.0296093
29324.7 0.0136772
29336.1 0.00799003
29358.8 0.00387016
29381.5 0.00241289
29472.4 0.000992323
29654.2 0.000627485
30017.9 0.000523777
30745.1 0.000477915
31472.4 0.000460941
31836.0 0.000483491
32017.8 0.000608897
32108.7 0.00112433
32154.2 0.00317420
32176.9 0.0112249
32188.3 0.0421914
32193.9 0.156722
32195.4 0.266291
32196.8 0.548559
32197.5 0.894592
32198.2 1.70309
32198.6 2.59850
32198.9 4.32506
32199.1 5.92598
32199.3 8.50867
32199.5 12.8952
32199.6 19.9545
32199.8 31.9273
32200.0 39.9093
32200.2 31.9272
32200.4 19.9544
32200.5 14.2469
32200.6 10.4024
32200.9 6.15386
32201.2 3.92892
32201.4 2.73884
32201.9 1.51995
32202.4 0.960769
32203.4 0.481553
32204.5 0.289347
32206.5 0.137210
32208.5 0.0798544
32216.6 0.0212622
32232.9 0.00576617
32265.4 0.00178027
32330.3 0.000768577
32460.3 0.000511493
32720.2 0.000442871
33240.0 0.000420500
33759.8 0.000425410
34019.7 0.000481834
34149.7 0.000718971
34214.7 0.00166660
34247.1 0.00541015
34263.4 0.0199816
34271.5 0.0751620
34273.5 0.129253
34275.6 0.272968
34276.6 0.457526
34277.6 0.909734
34278.1 1.44214
34278.6 2.60714
34278.9 3.80884
34279.1 5.89174
34279.4 10.0004
34279.5 13.7251
34279.6 18.7437
34279.8 29.9901
34280.0 37.4877
34280.2 29.9900
34280.4 18.7437
34280.6 10.4806
34280.8 6.36868
34281.1 4.19884
34281.3 2.95126
34281.8 1.67008
34282.2 1.06749
34283.1 0.541502
34284.1 0.325950
34285.9 0.155270
34287.7 0.0907796
34295.1 0.0242238
34309.8 0.00651675
34339.1 0.00194957
34397.8 0.000789256
34515.3 0.000496140
34750.2 0.000421685
35219.9 0.000403281
36159.5 0.000409513
37099.1 0.000454229
37568.8 0.000567882
37803.7 0.000954588
37921.2 0.00243753
37979.9 0.00818483
37994.6 0.0139762
38009.3 0.0299252
38016.6 0.0512216
38023.9 0.107755
38027.6 0.179756
38029.4 0.246519
38031.3 0.357656
38033.1 0.565406
38034.0 0.743241
38034.9 1.01388
38035.9 1.46333
38036.8 2.26775
38037.7 3.85913
38038.2 5.23755
38038.6 7.20064
38039.3 11.5296
38040.0 14.3505
38040.7 11.4633
38041.4 7.14889
38042.0 4.82477
38042.5 3.38641
38043.1 2.46924
38043.6 1.86458
38044.7 1.15307
38045.8 0.779997
38046.9 0.559231
38048.0 0.420815
38050.2 0.262415
38052.4 0.178670
38054.6 0.129587
38059.1 0.0770136
38067.9 0.0363402
38076.7 0.0211935
38094.3 0.00993063
38112.0 0.00586826
38147.3 0.00290877
38182.6 0.00185876
38323.7 0.000842872
38606.0 0.000611416
39170.5 0.000628249
39735.1 0.000754783
40017.4 0.000869485
40158.5 0.000995495
40229.1 0.00128246
40264.4 0.00229603
40282.0 0.00619538
40290.8 0.0210726
40295.3 0.0754259
40297.5 0.258059
40298.6 0.772170
40299.1 1.86095
40299.4 3.46275
40299.7 7.30340
40299.8 11.6849
40300.0 14.6060
40300.2 11.6849
40300.3 7.30340
40300.5 4.37486
40300.7 2.85432
40301.0 1.43602
40301.7 0.556414
40303.1 0.176822
40305.8 0.0508367
40311.3 0.0142746
40322.2 0.00442796
40344.0 0.00188324
40387.7 0.00125954
40475.1 0.00115589
40649.9 0.00126644
40824.7 0.00151624
40912.1 0.00195531
40955.8 0.00334154
40977.7 0.00855980
40988.6 0.0283543
40994.1 0.100020
40996.8 0.335634
40998.2 0.986211
40998.9 2.29764
40999.2 4.07603
40999.5 8.20064
40999.8 13.1202
41000.0 16.3999
41000.2 13.1201
41000.5 8.20059
41000.7 5.25489
41000.9 3.52067
41001.3 1.85149
41002.1 0.738945
41003.8 0.240932
41007.1 0.0701834
41013.7 0.0200066
41027.0 0.00641793
41053.6 0.00291586
41106.7 0.00210000
41212.9 0.00207416
41425.4 0.00256308
41637.8 0.00339928
41850.2 0.00480645
42062.7 0.00740616
42168.9 0.00960988
42222.0 0.0111042
42248.6 0.0119857
42275.1 0.0129755
42301.7 0.0140923
42328.2 0.0153571
42354.8 0.0167971
42381.3 0.0184434
42407.9 0.0203368
42434.5 0.0225246
42461.0 0.0250687
42487.6 0.0280423
42514.1 0.0315410
42540.7 0.0356786
42567.2 0.0406028
42593.8 0.0464872
42646.9 0.0620284
42700.0 0.0842559
42742.5 0.107649
42785.0 0.134288
42870.0 0.167201
42912.5 0.157202
42955.0 0.133598
43040.0 0.0835886
43095.0 0.0608194
43150.0 0.0451283
43260.0 0.0268233
43369.9 0.0174624
43479.9 0.0121925
43589.9 0.00897483
43699.9 0.00688079
43919.8 0.00442565
44139.7 0.00310527
44359.7 0.00232677
44579.6 0.00189426
44689.6 0.00201821
44744.6 0.00318010
44772.1 0.00803255
44785.8 0.0269112
44792.7 0.0972556
44796.2 0.342110
44797.0 0.562028
44797.9 1.08620
44798.3 1.66961
44798.7 2.86305
44799.2 5.82080
44799.4 8.97734
44799.6 14.8322
44799.8 23.6164
44800.0 29.6633
44800.2 23.6162
44800.4 14.8321
44800.6 10.2774
44800.7 7.24613
44801.1 4.00890
44801.7 1.70731
44802.3 0.921116
44803.0 0.577060
44805.5 0.169966
44810.6 0.0470834
44820.7 0.0132982
44841.0 0.00442155
44881.7 0.00210541
44962.9 0.00144203
45125.4 0.00114641
45450.4 0.000888150
46100.3 0.000617308
46750.3 0.000472623
47400.2 0.000385133
48700.1 0.000288579
50000.0 0.000239910
51549.8 0.000212138
52324.7 0.000209601
52712.2 0.000219828
52905.9 0.000261186
53002.7 0.000423126
53051.2 0.00106243
53075.4 0.00356991
53087.5 0.0132190
53093.5 0.0488622
53096.6 0.171089
53098.1 0.529617
53098.8 1.35052
53099.2 2.63927
53099.6 6.21420
53100.0 12.4283
53100.4 6.21418
53100.6 3.55390
53100.9 2.21373
53101.3 1.05483
53102.3 0.386903
53104.1 0.119728
53107.8 0.0334560
53115.2 0.00899201
53130.1 0.00246657
53159.7 0.000781501
53219.0 0.000354074
53337.6 0.000247771
53574.8 0.000224978
54049.2 0.000232758
54523.6 0.000259307
54998.0 0.000314005
55472.4 0.000437278
55709.6 0.000562606
55946.8 0.000793249
56184.0 0.00128777
56302.6 0.00177950
56421.2 0.00267173
56480.5 0.00341923
56539.8 0.00455374
56599.1 0.00639643
56658.4 0.00968603
56688.0 0.0123977
56717.7 0.0164491
56747.3 0.0228899
56777.0 0.0340365
56806.6 0.0558522
56821.4 0.0755568
56836.3 0.107694
56851.1 0.165216
56858.5 0.212430
56865.9 0.282291
56873.3 0.390955
56880.7 0.570211
56888.1 0.884782
56895.5 1.45483
56902.8 2.32870
56910.0 2.91108
56917.2 2.32764
56924.5 1.45413
56930.5 0.966093
56936.5 0.665978
56942.6 0.479048
56948.6 0.358065
56960.7 0.219238
56972.7 0.146926
56984.8 0.104971
56996.8 0.0786108
57021.0 0.0487167
57045.1 0.0330958
57069.2 0.0239450
57093.3 0.0181314
57117.4 0.0142115
57165.7 0.00941901
57213.9 0.00671431
57262.2 0.00503984
57310.4 0.00393188
57406.9 0.00260297
57503.4 0.00186675
57599.9 0.00141668
57696.4 0.00112157
57889.3 0.000770621
58082.3 0.000577677
58468.3 0.000383288
58854.2 0.000291782
59240.2 0.000241233
60012.1 0.000189688
61555.8 0.000151368
62327.7 0.000145771
62713.7 0.000155785
62906.7 0.000207399
63003.2 0.000418008
63051.4 0.00125537
63075.5 0.00454675
63087.6 0.0172493
63093.6 0.0645393
63096.6 0.229128
63098.1 0.729213
63098.9 1.90747
63099.3 3.88758
63099.5 6.07433
63099.6 9.93329
63099.8 15.9802
63100.0 19.8666
63100.2 15.9802
63100.4 9.93328
63100.7 4.24689
63101.0 2.21656
63101.7 0.875591
63103.0 0.284298
63105.7 0.0815510
63111.0 0.0219465
63121.7 0.00578102
63142.9 0.00157084
63185.5 0.000497028
63270.7 0.000225333
63441.0 0.000156218
63781.6 0.000137425
64462.8 0.000130467
65825.1 0.000126216
68549.9 0.000125698
71274.7 0.000133457
72637.1 0.000144098
73318.2 0.000159954
73658.8 0.000200990
73829.1 0.000349400
73914.3 0.000929639
73956.9 0.00320990
73978.2 0.0120531
73988.8 0.0452683
73994.1 0.162468
73996.8 0.528491
73998.1 1.44461
73998.8 3.09288
73999.1 5.00838
73999.4 8.74727
73999.7 14.0937
74000.0 17.4945
74000.3 13.8972
74000.6 8.74721
74001.0 4.49045
74001.4 2.61401
74002.1 1.15906
74003.7 0.403585
74006.9 0.120461
74013.1 0.0330676
74025.7 0.00877412
74050.8 0.00236250
74101.0 0.000717185
74201.5 0.000302143
74402.3 0.000201907
74804.1 0.000188277
75607.6 0.000236348
76009.3 0.000307578
76210.2 0.000377918
76411.1 0.000505281
76611.9 0.000774742
76712.4 0.00104040
76812.8 0.00151924
76863.0 0.00191818
76913.3 0.00252071
76963.5 0.00349320
77013.7 0.00521369
77038.8 0.00661996
77063.9 0.00870359
77089.0 0.0119791
77114.1 0.0175572
77139.2 0.0282045
77164.3 0.0524116
77176.9 0.0778919
77183.2 0.0979545
77189.5 0.126400
77195.7 0.168367
77198.9 0.196961
77202.0 0.232567
77205.1 0.277582
77208.3 0.334678
77211.4 0.407147
77214.6 0.497913
77218.4 0.637506
77222.3 0.796564
77230.0 0.995152
77233.9 0.936379
77237.7 0.795948
77245.5 0.497395
77254.6 0.281015
77263.8 0.172078
77273.0 0.113995
77282.2 0.0804286
77291.3 0.0595235
77300.5 0.0457453
77318.9 0.0293597
77337.2 0.0204015
77355.5 0.0149987
77392.2 0.00909628
77428.9 0.00611906
77465.6 0.00441363
77502.3 0.00334710
77539.0 0.00263634
77612.4 0.00177800
77685.8 0.00129974
77759.2 0.00100658
77832.5 0.000814437
77979.3 0.000587810
78126.1 0.000469858
78272.9 0.000434981
78346.2 0.000570777
78382.9 0.00120257
78401.3 0.00371092
78410.5 0.0132853
78415.0 0.0481423
78417.3 0.162997
78418.5 0.482293
78419.1 1.13045
78419.6 4.09705
78420.0 8.19381
78420.4 4.09705
78420.8 1.39225
78421.3 0.645301
78422.2 0.235617
78424.0 0.0721843
78427.7 0.0202364
78435.0 0.00557567
78449.6 0.00167025
78478.9 0.000657601
78537.4 0.000389659
78654.4 0.000304707
78888.5 0.000260428
79356.6 0.000227952
80292.8 0.000211893
82165.2 0.000227984
84037.6 0.000271004
85910.0 0.000345163
87782.5 0.000478620
89654.9 0.000757439
90123.0 0.000876382
90591.1 0.00103140
91059.2 0.00123873
91293.2 0.00136958
91527.3 0.00152434
91761.4 0.00170896
91995.4 0.00193112
92229.5 0.00220089
92463.5 0.00253134
92697.6 0.00293936
92931.6 0.00344661
93165.7 0.00408490
93282.7 0.00449628
93341.2 0.00487061
93370.5 0.00567058
93385.1 0.00844787
93392.4 0.0188612
93396.1 0.0567539
93397.9 0.182713
93398.8 0.530681
93399.3 1.26292
93399.7 4.79800
93400.0 9.59117
93400.3 4.79800
93400.7 1.49300
93401.1 0.667171
93401.9 0.237091
93403.4 0.0748079
93406.5 0.0240507
93412.7 0.00992293
93425.2 0.00622459
93450.0 0.00535599
93528.1 0.00538495
93606.3 0.00567737
93762.5 0.00635904
94075.0 0.00785504
94700.0 0.00968394
95012.5 0.00911412
95325.0 0.00779931
95950.0 0.00505713
96456.2 0.00359052
96962.5 0.00269994
97468.7 0.00216772
97975.0 0.00185305
98987.4 0.00159644
99999.9 0.00164547
100000 0.00164551
100001 0.00164559
100001 0.00164566
100002 0.00164580
100003 0.00164608
100007 0.00164663
100013 0.00164774
100026 0.00165002
100052 0.00165469
100103 0.00166449
100206 0.00168602
100412 0.00173701
100825 0.00187237
101237 0.00205762
101649 0.00230257
102061 0.00262338
102473 0.00305298
102885 0.00375583
103092 0.00488404
103195 0.00830743
103246 0.0207400
103259 0.0328792
103272 0.0651029
103278 0.106641
103285 0.207802
103288 0.324948
103291 0.577726
103293 0.828100
103294 1.27226
103296 2.14024
103297 2.88457
103298 4.01520
103299 6.49457
103300 8.02653
103301 6.49436
103302 4.01507
103304 2.30060
103305 1.39205
103307 0.915282
103308 0.642505
103311 0.363804
103314 0.236509
103320 0.121150
103326 0.0747978
103338 0.0377214
103350 0.0236953
103368 0.0147660
103386 0.0108374
103422 0.00757825
103494 0.00571338
103638 0.00510065
103925 0.00535856
104500 0.00648213
105650 0.00788740
106225 0.00736112
106800 0.00622742
107950 0.00389207
108962 0.00254836
109974 0.00174592
110986 0.00127400
111492 0.00117994
111619 0.00122410
111745 0.00142117
111872 0.00262538
111935 0.00740171
111967 0.0252528
111974 0.0424787
111982 0.0873279
111986 0.144072
111990 0.275819
111992 0.426129
111994 0.737245
111995 1.03095
111996 1.52378
111997 2.40745
111998 3.87331
111999 6.30180
112000 7.74581
112001 6.30166
112002 3.87321
112003 2.65988
112003 1.81433
112004 1.29364
112005 0.960204
112007 0.582155
112008 0.387689
112011 0.205979
112015 0.128970
112021 0.0630924
112027 0.0377508
112040 0.0180808
112053 0.0108025
112078 0.00541161
112103 0.00347311
112154 0.00204902
112205 0.00153715
112306 0.00115329
112408 0.00100403
112814 0.000800526
113626 0.000640579
115249 0.000460579
116873 0.000367576
117279 0.000365363
117685 0.000400155
118091 0.000671764
118294 0.00180032
118396 0.00618914
118446 0.0225401
118459 0.0383412
118472 0.0795241
118478 0.131336
118484 0.252981
118488 0.390633
118491 0.661663
118492 0.920715
118494 1.35149
118495 2.11494
118497 3.43152
118499 5.54037
118500 6.86294
118502 5.54017
118503 3.43139
118504 2.38991
118505 1.67645
118507 1.22091
118508 0.941483
118510 0.591321
118512 0.402698
118517 0.216998
118522 0.136152
118531 0.0673477
118540 0.0402586
118559 0.0190530
118577 0.0111320
118614 0.00522266
118651 0.00309323
118725 0.00153625
118799 0.000980973
118948 0.000577074
119096 0.000431508
119392 0.000321043
119688 0.000276717
120874 0.000211969
123245 0.000159872
127986 0.000111426
130357 0.000102658
132728 0.000110556
133913 0.000132854
135099 0.000204735
135691 0.000307625
136284 0.000598888
136580 0.000997793
136877 0.00209382
137025 0.00355234
137099 0.00495319
137173 0.00739618
137247 0.0122532
137284 0.0167162
137321 0.0241064
137358 0.0377116
137377 0.0491610
137395 0.0665570
137414 0.0946178
137432 0.143368
137451 0.235603
137460 0.312692
137469 0.420561
137485 0.674214
137500 0.841897
137515 0.672193
137531 0.420379
137545 0.264533
137560 0.174840
137575 0.122008
137589 0.0892090
137618 0.0530668
137647 0.0349902
137677 0.0247073
137706 0.0183701
137764 0.0112748
137822 0.00761515
137881 0.00549377
137939 0.00415423
137997 0.00325505
138114 0.00216022
138231 0.00154564
138347 0.00116633
138464 0.000915926
138697 0.000616252
138930 0.000450780
139397 0.000283932
139863 0.000206112
140330 0.000164217
141263 0.000125563
142196 0.000116086
143129 0.000135369
143595 0.000172807
144062 0.000284334
144295 0.000440630
144528 0.000882964
144645 0.00149562
144762 0.00321443
144878 0.0120617
144937 0.0439391
144951 0.0737004
144966 0.148004
144973 0.235560
144980 0.428943
144984 0.629092
144988 0.984804
144989 1.27727
144991 1.70416
144993 2.34154
144995 3.29239
144997 5.26791
145000 6.58484
145003 5.26767
145005 3.29222
145007 2.21641
145009 1.54287
145012 1.11778
145014 0.850762
145018 0.523225
145022 0.354553
145030 0.190907
145038 0.119268
145055 0.0588500
145071 0.0349284
145104 0.0164169
145137 0.00952184
145203 0.00439578
145269 0.00254537
145401 0.00119808
145533 0.000720540
146061 0.000264440
146326 0.000216877
146590 0.000198343
147118 0.000208319
147646 0.000281747
147910 0.000363706
148174 0.000514512
148438 0.000828049
148570 0.00112662
148702 0.00164143
148834 0.00264228
148900 0.00353737
148966 0.00498380
149032 0.00753255
149098 0.0125987
149131 0.0171784
149164 0.0245234
149181 0.0298828
149197 0.0369135
149214 0.0461717
149222 0.0518608
149230 0.0582421
149239 0.0659539
149248 0.0743952
149265 0.0927800
149300 0.115628
149318 0.108894
149335 0.0927232
149370 0.0581867
149414 0.0321797
149457 0.0194109
149501 0.0127429
149544 0.00894340
149587 0.00659504
149631 0.00505617
149718 0.00324044
149805 0.00225344
149892 0.00166097
150066 0.00101600
150239 0.000691399
150413 0.000505675
150761 0.000311933
151109 0.000218045
151456 0.000165399
152152 0.000111277
152847 8.52349E-05
153543 7.06502E-05
154933 5.59173E-05
156324 5.01589E-05
157715 5.19361E-05
158410 5.94809E-05
159106 8.46236E-05
159801 0.000226577
160149 0.000792677
160323 0.00301003
160410 0.0114826
160453 0.0424989
160475 0.145818
160486 0.439115
160491 1.05374
160494 1.92780
160497 4.14089
160498 6.59388
160500 8.28182
160502 6.59379
160503 4.14084
160505 2.57642
160507 1.66427
160510 0.825249
160517 0.314948
160530 0.0999865
160557 0.0283173
160611 0.00756273
160719 0.00197660
160935 0.000527217
161368 0.000157527
162232 6.33663E-05
163096 4.51601E-05
163960 3.83222E-05
167416 3.02409E-05
174329 2.69269E-05
181242 2.86362E-05
182970 3.11446E-05
184698 3.80625E-05
185563 4.74223E-05
186427 7.33323E-05
186859 0.000108512
187291 0.000204825
187507 0.000332785
187723 0.000669722
187831 0.00109467
187885 0.00148400
187939 0.00212962
187993 0.00331247
188020 0.00430835
188047 0.00581922
188074 0.00825126
188101 0.0124635
188128 0.0203958
188155 0.0361947
188177 0.0578828
188200 0.0723225
188223 0.0578584
188245 0.0361775
188271 0.0208828
188297 0.0129958
188323 0.00869500
188348 0.00618361
188374 0.00460045
188400 0.00355299
188451 0.00229644
188503 0.00160555
188554 0.00118688
188657 0.000728173
188760 0.000495712
188863 0.000362206
189069 0.000222834
189275 0.000155357
189481 0.000117716
189893 7.94372E-05
190305 6.14128E-05
190717 5.15789E-05
191540 4.19117E-05
193188 3.56047E-05
194835 3.42381E-05
201425 3.97230E-05
204720 4.66978E-05
208015 5.89995E-05
209663 6.98815E-05
211310 9.08189E-05
212134 0.000113301
212958 0.000167087
213370 0.000233968
213575 0.000296523
213781 0.000403997
213987 0.000613989
214090 0.000803992
214193 0.00111507
214296 0.00167629
214348 0.00214126
214399 0.00283388
214451 0.00392636
214502 0.00576030
214554 0.00905931
214605 0.0152154
214653 0.0242625
214700 0.0302719
214748 0.0242447
214795 0.0152039
214840 0.00960136
214886 0.00638152
214931 0.00448330
214976 0.00330427
215066 0.00200379
215157 0.00135284
215247 0.000984100
215338 0.000756808
215519 0.000503826
215699 0.000374533
215880 0.000300452
216242 0.000224602
216965 0.000173600
217689 0.000163182
219136 0.000178063
220583 0.000217804
222029 0.000284198
223476 0.000392738
224923 0.000575755
225647 0.000711857
226008 0.000794698
226370 0.000888556
226761 0.00100281
227153 0.00112928
227544 0.00126481
227935 0.00140281
228718 0.00164103
229500 0.00173514
230283 0.00162841
231065 0.00138506
232630 0.000879349
233778 0.000630180
234925 0.000473174
236073 0.000379627
237220 0.000333464
238368 0.000336955
238941 0.000367808
239515 0.000436237
240089 0.000582279
240376 0.000714942
240663 0.000926436
240949 0.00128657
241236 0.00195713
241523 0.00335944
241667 0.00464061
241738 0.00552042
241774 0.00603483
241810 0.00660091
241859 0.00745937
241908 0.00840924
241956 0.00943107
242005 0.0104730
242103 0.0122893
242200 0.0130395
242298 0.0122725
242395 0.0104460
242590 0.00656942
242822 0.00375671
243053 0.00233743
243285 0.00158042
243516 0.00114171
243748 0.000867890
243979 0.000686652
244443 0.000469710
244906 0.000349758
245369 0.000276318
246295 0.000194058
247221 0.000150801
248148 0.000124904
250000 9.64523E-05
250000 9.64503E-05
250001 9.64440E-05
250001 9.64377E-05
250003 9.64252E-05
250005 9.64012E-05
250009 9.63533E-05
250019 9.62577E-05
250037 9.60665E-05
250074 9.56880E-05
250148 9.49462E-05
250296 9.35216E-05
250592 9.08931E-05
251184 8.64123E-05
252368 7.99532E-05
254736 7.50045E-05
257104 8.94870E-05
257696 0.000107254
258288 0.000157535
258584 0.000226273
258880 0.000415319
259176 0.00133600
259250 0.00218631
259287 0.00297119
259324 0.00428338
259361 0.00671752
259379 0.00879365
259398 0.0119852
259416 0.0172184
259435 0.0265299
259453 0.0447936
259462 0.0603899
259472 0.0830253
259486 0.133051
259500 0.166103
259514 0.132653
259529 0.0830073
259541 0.0539156
259554 0.0365071
259566 0.0259255
259579 0.0192023
259604 0.0116267
259629 0.00775975
259654 0.00552969
259680 0.00413943
259730 0.00257664
259780 0.00176392
259831 0.00129059
259931 0.000788523
260032 0.000542343
260133 0.000403774
260334 0.000261766
260535 0.000194266
260737 0.000157132
261140 0.000120122
261945 9.47662E-05
262751 8.78013E-05
265973 9.83367E-05
267584 0.000116998
269195 0.000154428
270000 0.000192929
270806 0.000279607
271611 0.000642014
271812 0.000961301
271913 0.00125183
272014 0.00173220
272115 0.00261116
272165 0.00335223
272215 0.00447529
272266 0.00628998
272316 0.00943590
272366 0.0153842
272391 0.0203331
272417 0.0273027
272458 0.0436034
272500 0.0544291
272542 0.0435420
272584 0.0272924
272627 0.0166249
272670 0.0107630
272713 0.00743349
272756 0.00542019
272799 0.00412841
272842 0.00325696
272928 0.00219837
273015 0.00160877
273101 0.00124927
273273 0.000855095
273446 0.000658237
273618 0.000548690
273963 0.000444208
274652 0.000398888
275342 0.000429448
276721 0.000613412
277411 0.000776879
278100 0.00100713
278400 0.00113115
278700 0.00126888
279300 0.00156875
280500 0.00195594
281100 0.00186996
281700 0.00164848
282900 0.00125131
283488 0.00120843
284075 0.00134728
284663 0.00185140
284956 0.00238598
285103 0.00277164
285250 0.00325783
285438 0.00403417
285625 0.00492482
286000 0.00602006
286375 0.00484384
286750 0.00310989
287069 0.00212359
287388 0.00151647
287706 0.00113676
288025 0.000889076
288663 0.000599791
289300 0.000444361
290575 0.000291106
291850 0.000222528
293125 0.000192142
294400 0.000193083
295675 0.000283829
296312 0.000616063
296472 0.000922666
296552 0.00120823
296631 0.00169127
296711 0.00260920
296751 0.00341393
296791 0.00468253
296830 0.00685355
296870 0.0109500
296890 0.0144632
296910 0.0198056
296930 0.0282061
296950 0.0415028
296975 0.0662641
297000 0.0827539
297025 0.0662484
297050 0.0414957
297068 0.0291225
297087 0.0209871
297105 0.0156312
297123 0.0120288
297159 0.00769210
297196 0.00533440
297232 0.00392568
297268 0.00302744
297341 0.00199288
297414 0.00144642
297486 0.00112719
297631 0.000795430
297777 0.000646744
297922 0.000581379
298213 0.000583674
298503 0.000740682
298649 0.000912641
298794 0.00120962
298939 0.00176214
299012 0.00222878
299084 0.00293437
299157 0.00406643
299230 0.00600854
299302 0.00962415
299375 0.0166839
299438 0.0265548
299500 0.0331153
299563 0.0265365
299625 0.0166712
299687 0.0103631
299749 0.00682269
299811 0.00477560
299874 0.00352212
299998 0.00216005
300122 0.00148756
300246 0.00111187
300370 0.000883873
300619 0.000638799
300867 0.000525355
301116 0.000474429
301613 0.000474691
302109 0.000589152
302358 0.000708262
302606 0.000900134
302855 0.00122046
303103 0.00178970
303352 0.00288859
303476 0.00381497
303538 0.00442051
303600 0.00513959
303650 0.00580542
303700 0.00654376
303750 0.00733653
303800 0.00814670
303900 0.00955794
304000 0.0101415
304200 0.00812797
304400 0.00511628
304573 0.00338823
304745 0.00234046
304918 0.00169621
305090 0.00128323
305435 0.000813682
305780 0.000571125
306125 0.000431123
306470 0.000343533
307160 0.000244962
307850 0.000194530
308540 0.000166304
309920 0.000141095
311300 0.000138200
312680 0.000156562
313370 0.000183310
314060 0.000251656
314405 0.000338303
314750 0.000562546
314923 0.000846248
315095 0.00155103
315182 0.00238177
315225 0.00309944
315268 0.00421890
315311 0.00609929
315354 0.00954859
315376 0.0124297
315397 0.0166677
315419 0.0231245
315440 0.0328798
315470 0.0525322
315500 0.0655617
315530 0.0524471
315560 0.0328710
315585 0.0217109
315611 0.0149316
315636 0.0107424
315661 0.00804754
315712 0.00497428
315763 0.00338342
315814 0.00246315
315865 0.00188850
315966 0.00124015
316068 0.000904186
316170 0.000709948
316373 0.000509284
316576 0.000418156
316779 0.000375230
317186 0.000360022
317593 0.000412625
317999 0.000578896
318202 0.000771035
318406 0.00116795
318507 0.00154187
318609 0.00216788
318710 0.00329221
318812 0.00539477
318906 0.00849766
319000 0.0105669
319094 0.00849672
319188 0.00540340
319303 0.00312755
319417 0.00200502
319532 0.00141831
319646 0.00108509
319876 0.000752260
320105 0.000607227
320563 0.000513542
321022 0.000529799
321480 0.000629929
321938 0.000897901
322168 0.00120873
322282 0.00147593
322397 0.00189343
322511 0.00259906
322626 0.00392293
322683 0.00505337
322741 0.00676764
322798 0.00945589
322855 0.0136903
322928 0.0215955
323000 0.0268537
323073 0.0215995
323145 0.0137187
323214 0.00884428
323283 0.00604309
323352 0.00439808
323421 0.00338280
323559 0.00227452
323698 0.00173260
323974 0.00126911
324250 0.00111128
324594 0.00106728
324938 0.00109747
325625 0.00124793
326313 0.00140885
327000 0.00147074
328375 0.00118277
329750 0.000776220
331088 0.000528979
332425 0.000397548
333763 0.000333142
335100 0.000310162
337775 0.000358391
339113 0.000437022
339781 0.000495151
340450 0.000568277
340919 0.000628952
341388 0.000696824
341856 0.000770120
342325 0.000845203
343263 0.000975720
344200 0.00102820
345138 0.000971075
346075 0.000839865
347950 0.000576154
348945 0.000491356
349940 0.000462739
350438 0.000488046
350935 0.000594655
351184 0.000744115
351433 0.00113054
351557 0.00160092
351619 0.00201843
351681 0.00268784
351744 0.00385468
351806 0.00613620
351837 0.00816379
351868 0.0113598
351899 0.0166283
351930 0.0254160
352000 0.0504536
352035 0.0404300
352070 0.0254125
352095 0.0181233
352119 0.0132608
352144 0.0100183
352168 0.00781221
352217 0.00513094
352266 0.00365851
352315 0.00277509
352364 0.00220772
352461 0.00155269
352559 0.00120736
352657 0.00100649
352853 0.000802071
353244 0.000685647
353635 0.000710272
354026 0.000816760
354418 0.00101393
354809 0.00134446
355200 0.00187882
355450 0.00235258
355575 0.00262077
355700 0.00289501
355950 0.00337196
356200 0.00356549
356700 0.00286615
357200 0.00183009
357622 0.00124579
358044 0.000886630
358466 0.000663117
358888 0.000518454
359732 0.000352711
360576 0.000268530
361420 0.000226524
362264 0.000222735
362686 0.000250967
363107 0.000351650
363318 0.000493839
363529 0.000873010
363635 0.00134951
363740 0.00249511
363793 0.00378290
363820 0.00485125
363846 0.00644043
363872 0.00895269
363899 0.0131525
363925 0.0207340
363951 0.0348588
363976 0.0557236
364000 0.0695432
364024 0.0556192
364049 0.0348480
364069 0.0232662
364089 0.0161055
364109 0.0116340
364129 0.00874621
364170 0.00540717
364210 0.00366864
364251 0.00265585
364291 0.00202038
364371 0.00129826
364452 0.000919720
364533 0.000697397
364694 0.000460129
364856 0.000342369
365017 0.000275264
365340 0.000204904
365985 0.000150074
366630 0.000128588
367921 0.000112318
369212 0.000109957
370503 0.000118613
371794 0.000150245
372439 0.000192568
372762 0.000232706
373084 0.000302223
373407 0.000439562
373568 0.000565548
373730 0.000775186
373891 0.00116286
373972 0.00149270
374052 0.00199798
374133 0.00282531
374214 0.00429026
374294 0.00715235
374335 0.00959717
374375 0.0131361
374406 0.0167724
374422 0.0188169
374438 0.0209048
374453 0.0228942
374469 0.0245520
374500 0.0260609
374563 0.0208971
374625 0.0131300
374682 0.00848683
374738 0.00574240
374795 0.00408655
374852 0.00304388
374965 0.00187648
375078 0.00128353
375192 0.000945420
375305 0.000735856
375531 0.000502285
375758 0.000383373
375984 0.000316111
376438 0.000250256
377344 0.000219249
378250 0.000240951
379156 0.000307063
380063 0.000460424
380516 0.000614850
380969 0.000894334
381422 0.00146385
381649 0.00197592
381875 0.00275093
382031 0.00347299
382188 0.00429620
382344 0.00502257
382500 0.00532720
382813 0.00431831
383125 0.00280483
383516 0.00168195
383906 0.00115533
384297 0.000905025
384688 0.000789181
385469 0.000756695
386250 0.000881543
386531 0.000956673
386813 0.00104522
387094 0.00114391
387375 0.00124689
387656 0.00134536
387938 0.00142762
388500 0.00149626
389625 0.00119888
390750 0.000772972
392000 0.000482206
393250 0.000334119
394500 0.000261112
395750 0.000232896
397000 0.000244583
398250 0.000323045
398875 0.000419945
399500 0.000613294
399813 0.000783775
400125 0.00104798
400438 0.00147233
400750 0.00216008
400844 0.00243274
400938 0.00273487
401031 0.00305987
401125 0.00339213
401219 0.00370811
401313 0.00397457
401500 0.00422596
401875 0.00346387
402250 0.00236796
402488 0.00200087
402726 0.00205852
402845 0.00241612
402964 0.00336153
403023 0.00434660
403083 0.00610369
403142 0.00948243
403202 0.0163086
403251 0.0256244
403300 0.0318200
403349 0.0255582
403398 0.0161885
403431 0.0118598
403463 0.00890094
403527 0.00546169
403592 0.00370112
403656 0.00270629
403785 0.00168704
403914 0.00119966
404043 0.000924497
404172 0.000750989
404429 0.000546861
404945 0.000356732
405460 0.000266460
406491 0.000180018
407522 0.000139854
409584 0.000106201
411646 9.80298E-05
413708 0.000105652
415769 0.000136173
416800 0.000171382
417831 0.000245165
418347 0.000319735
418862 0.000464436
419120 0.000597889
419378 0.000823515
419635 0.00124556
419893 0.00209941
420097 0.00321600
420300 0.00397499
420504 0.00329227
420707 0.00226213
420900 0.00166013
421093 0.00135752
421479 0.00123084
421864 0.00149674
422250 0.00218030
422438 0.00269774
422625 0.00329701
422813 0.00382662
423000 0.00404119
423375 0.00325558
423750 0.00209419
424125 0.00135200
424500 0.000938624
424875 0.000703386
425250 0.000563294
426000 0.000422910
426750 0.000371407
428250 0.000387970
429750 0.000513414
430563 0.000625076
430969 0.000689827
431375 0.000756525
431781 0.000819834
432188 0.000872600
433000 0.000917528
434625 0.000735558
436250 0.000473581
438144 0.000291357
440038 0.000212492
440984 0.000205857
441931 0.000243895
442405 0.000311068
442642 0.000377253
442878 0.000491041
443115 0.000706378
443233 0.000892327
443352 0.00118037
443470 0.00165778
443588 0.00251760
443707 0.00423787
443766 0.00574399
443825 0.00796261
443869 0.0101570
443891 0.0113953
443913 0.0126546
443956 0.0148584
444000 0.0157710
444088 0.0126468
444175 0.00795357
444262 0.00494046
444350 0.00325072
444437 0.00227474
444524 0.00167738
444687 0.00105754
444850 0.000738451
445013 0.000554258
445176 0.000438860
445502 0.000308495
445828 0.000241189
446479 0.000180579
447131 0.000163321
447783 0.000176494
448108 0.000200301
448434 0.000247873
448760 0.000348924
449086 0.000607882
449412 0.00163994
449493 0.00242832
449574 0.00404471
449615 0.00559225
449656 0.00826224
449697 0.0133595
449717 0.0176830
449737 0.0238850
449769 0.0374592
449800 0.0467653
449831 0.0388278
449863 0.0268648
449882 0.0220531
449911 0.0180225
449941 0.0165863
450000 0.0155917
450118 0.00751066
450178 0.00480028
450238 0.00325889
450297 0.00234574
450357 0.00177103
450476 0.00112185
450595 0.000785062
450715 0.000588062
450834 0.000463091
451072 0.000319145
451311 0.000242575
451549 0.000197166
452026 0.000148839
452980 0.000115288
453934 0.000113034
454888 0.000134017
455365 0.000159011
455842 0.000204326
456319 0.000294103
456558 0.000374873
456796 0.000505626
457035 0.000736383
457273 0.00119631
457392 0.00161377
457512 0.00228555
457631 0.00342571
457750 0.00540534
457813 0.00689617
457844 0.00773902
457875 0.00859759
457906 0.00941358
457938 0.0100964
458000 0.0107194
458125 0.00859449
458250 0.00540544
458357 0.00359016
458463 0.00248446
458677 0.00136462
458890 0.000868737
459103 0.000616316
459316 0.000475267
459530 0.000392904
459956 0.000323118
460383 0.000341665
460809 0.000495811
461023 0.000707239
461129 0.000896949
461236 0.00119916
461343 0.00171671
461449 0.00269165
461502 0.00352321
461556 0.00477963
461609 0.00673804
461662 0.00980567
461731 0.0156346
461800 0.0195081
461869 0.0156147
461938 0.00979350
461986 0.00696886
462034 0.00508221
462082 0.00382251
462130 0.00296152
462226 0.00191667
462323 0.00134176
462419 0.000995824
462515 0.000772740
462707 0.000513016
462900 0.000373597
463092 0.000290206
463477 0.000199548
463862 0.000153836
464246 0.000127692
465016 0.000101035
466555 8.54512E-05
468094 9.02374E-05
469633 0.000113064
470403 0.000136067
471172 0.000174430
471942 0.000243367
472711 0.000383364
473096 0.000512887
473481 0.000725980
473865 0.00109922
474250 0.00177408
474438 0.00225550
474531 0.00252741
474625 0.00280500
474719 0.00306828
474813 0.00328904
475000 0.00349000
475375 0.00280452
475750 0.00177916
476011 0.00128539
476271 0.000956344
476792 0.000590057
477313 0.000417155
477834 0.000334792
478356 0.000310594
478877 0.000363898
479137 0.000465599
479398 0.000743744
479528 0.00108493
479658 0.00186388
479724 0.00268372
479789 0.00423903
479821 0.00558091
479854 0.00762279
479886 0.0108588
479919 0.0159927
479959 0.0254829
480000 0.0318039
480041 0.0254748
480081 0.0159851
480106 0.0118246
480131 0.00890909
480182 0.00544153
480232 0.00362500
480282 0.00258909
480332 0.00194872
480382 0.00152955
480482 0.00103348
480583 0.000763959
480683 0.000601985
480884 0.000426070
481084 0.000338391
481285 0.000289259
481686 0.000241528
483291 0.000237091
484093 0.000280627
484895 0.000356789
485698 0.000482931
486500 0.000687125
487000 0.000863854
487250 0.000963832
487500 0.00106616
487750 0.00116332
488000 0.00124521
488500 0.00132179
489500 0.00108467
490500 0.000742164
491133 0.000617004
491767 0.000589106
492083 0.000631389
492400 0.000747132
492716 0.00101685
493033 0.00163765
493267 0.00243301
493500 0.00296118
493734 0.00241955
493967 0.00161496
494172 0.00114992
494377 0.000874284
494788 0.000614022
495198 0.000528097
495609 0.000528635
496019 0.000600606
496429 0.000767816
496840 0.00110330
497250 0.00175946
497438 0.00221146
497625 0.00272898
497813 0.00318455
498000 0.00337053
498375 0.00270611
498750 0.00171811
499063 0.00116574
499375 0.000823751
499688 0.000609465
500000 0.000469816
500000 0.000469743
500001 0.000469562
500001 0.000469380
500002 0.000469053
500004 0.000468364
500008 0.000466991
500015 0.000464264
500030 0.000458920
500061 0.000448521
500121 0.000428819
500242 0.000393355
500483 0.000335279
500967 0.000254417
501933 0.000166277
502900 0.000121522
503866 9.54794E-05
505799 6.76906E-05
507732 5.42207E-05
509665 4.76806E-05
511598 4.67946E-05
512564 5.01676E-05
513531 6.21234E-05
514014 7.91296E-05
514497 0.000126380
514739 0.000189948
514980 0.000360940
515101 0.000582728
515222 0.00114646
515343 0.00337708
515373 0.00501592
515403 0.00815537
515418 0.0108849
515433 0.0150923
515448 0.0218255
515464 0.0327085
515482 0.0523842
515500 0.0654101
515518 0.0522635
515537 0.0327040
515549 0.0233496
515561 0.0170940
515586 0.00994992
515611 0.00639227
515636 0.00442863
515686 0.00246775
515736 0.00157335
515785 0.00109327
515835 0.000807918
515934 0.000499867
516034 0.000346113
516133 0.000258725
516332 0.000168516
516531 0.000125502
516730 0.000101960
517128 7.90523E-05
517924 6.60956E-05
518719 6.85204E-05
519515 8.32240E-05
519913 9.89870E-05
520311 0.000127355
520709 0.000185391
521107 0.000334947
521505 0.000956355
521604 0.00143979
521703 0.00242071
521753 0.00333093
521803 0.00482607
521853 0.00743999
521902 0.0121535
521951 0.0194193
522000 0.0242458
522049 0.0193982
522098 0.0121502
522148 0.00737019
522199 0.00475416
522250 0.00326990
522300 0.00237296
522351 0.00179675
522402 0.00140896
522503 0.000937744
522604 0.000674802
522705 0.000514374
522908 0.000337644
523110 0.000248530
523313 0.000198160
523718 0.000148275
524123 0.000128120
524528 0.000121602
525337 0.000131950
526147 0.000173382
526957 0.000280979
527362 0.000399955
527767 0.000637517
527970 0.000853293
528172 0.00120126
528375 0.00179323
528577 0.00282413
528789 0.00448620
529000 0.00559287
529212 0.00448412
529423 0.00282714
529591 0.00193779
529759 0.00137812
529928 0.00102374
530096 0.000791962
530432 0.000524804
530769 0.000387439
531105 0.000311134
531441 0.000267623
532114 0.000234186
532787 0.000247610
533460 0.000313420
533796 0.000380259
534132 0.000490064
534469 0.000677226
534805 0.00100238
535153 0.00151958
535500 0.00187568
535848 0.00157588
536195 0.00112443
536646 0.000830295
537098 0.000791366
537549 0.000936940
538000 0.00128800
538250 0.00158575
538500 0.00193280
538750 0.00223964
539000 0.00236152
539500 0.00189106
540000 0.00120042
540432 0.000803365
540865 0.000561888
541297 0.000412804
541729 0.000316784
542593 0.000206889
543458 0.000149769
544322 0.000116850
545187 9.65924E-05
546916 7.56398E-05
548644 6.96743E-05
550373 7.94141E-05
551238 9.85486E-05
551670 0.000117917
552102 0.000152355
552534 0.000221509
552967 0.000391996
553183 0.000589332
553399 0.00101458
553507 0.00143529
553615 0.00217914
553723 0.00362787
553777 0.00486264
553831 0.00664721
553916 0.0106076
554000 0.0132457
554085 0.0106025
554169 0.00664350
554224 0.00482752
554279 0.00358171
554390 0.00213692
554500 0.00140167
554610 0.000988915
554721 0.000737400
554831 0.000573915
555052 0.000382463
555272 0.000279450
555493 0.000218072
555934 0.000152090
556375 0.000119699
556817 0.000101882
557699 8.51920E-05
559464 7.94236E-05
561229 8.87054E-05
562994 0.000111227
564759 0.000159224
565642 0.000206933
566524 0.000302548
566965 0.000401144
567407 0.000609002
567627 0.000825232
567848 0.00125177
567958 0.00164246
568068 0.00228468
568179 0.00341373
568234 0.00429298
568289 0.00547401
568342 0.00692482
568395 0.00857886
568500 0.0106516
568606 0.00860203
568711 0.00552657
568779 0.00413324
568847 0.00317661
568983 0.00207108
569119 0.00151832
569256 0.00121968
569528 0.000951519
569800 0.000869332
570300 0.000898313
570800 0.00101988
571300 0.00114705
571800 0.00119770
572800 0.000977219
573800 0.000663899
574975 0.000452811
576150 0.000367470
577325 0.000354802
578500 0.000408004
579063 0.000476445
579625 0.000627058
579906 0.000786908
580188 0.00110914
580328 0.00141144
580469 0.00192036
580609 0.00284622
580680 0.00358906
580750 0.00461229
580875 0.00713368
581000 0.00881164
581125 0.00714183
581250 0.00463244
581391 0.00287972
581531 0.00196800
581672 0.00147244
581813 0.00118309
582094 0.000884608
582375 0.000746351
582938 0.000630337
583500 0.000583187
584750 0.000525111
586000 0.000481731
587250 0.000485924
587875 0.000535200
588500 0.000656817
589000 0.000858659
589500 0.00123814
589750 0.00151936
590000 0.00184216
590250 0.00212589
590500 0.00223914
591000 0.00181042
591500 0.00117809
591972 0.000787804
592443 0.000559318
592915 0.000422053
593387 0.000335119
594330 0.000237465
595274 0.000190279
596217 0.000172545
597160 0.000189016
597632 0.000224191
598104 0.000306777
598340 0.000387551
598575 0.000523939
598811 0.000767690
599047 0.00121623
599274 0.00189768
599500 0.00235046
599727 0.00189075
599953 0.00120507
600000 0.00109290
600000 0.00741035
700000 0.00726415
750000 0.00725353
750000 0.00725353
800000 0.00724291
900000 0.00731548
999999 0.00746340
1.00000E+06 0.00784000
1.00037E+06 0.00784120
1.00123E+06 0.00784398
1.00188E+06 0.00784609
1.00232E+06 0.00784751
1.00286E+06 0.00784926
1.00372E+06 0.00785204
1.00459E+06 0.00785486
1.00525E+06 0.00785700
1.00590E+06 0.00785910
1.00688E+06 0.00786227
1.00731E+06 0.00786366
1.00786E+06 0.00786544
1.00830E+06 0.00786687
1.00906E+06 0.00786933
1.01005E+06 0.00787253
1.01103E+06 0.00787571
1.01202E+06 0.00787891
1.01257E+06 0.00788069
1.01466E+06 0.00788746
1.01633E+06 0.00789286
1.01660E+06 0.00789374
1.01683E+06 0.00789448
1.01700E+06 0.00789503
1.01744E+06 0.00789646
1.01834E+06 0.00789937
1.01967E+06 0.00790368
1.02049E+06 0.00790633
1.02071E+06 0.00790704
1.02099E+06 0.00790795
1.02184E+06 0.00791070
1.02218E+06 0.00791180
1.02296E+06 0.00791433
1.02441E+06 0.00791902
1.02475E+06 0.00792012
1.02542E+06 0.00792229
1.02609E+06 0.00792446
1.02676E+06 0.00792663
1.02834E+06 0.00793174
1.02924E+06 0.00793465
1.03048E+06 0.00793867
1.03059E+06 0.00793903
1.03183E+06 0.00794304
1.03217E+06 0.00794414
1.03387E+06 0.00794964
1.03478E+06 0.00795259
1.03535E+06 0.00795443
1.03580E+06 0.00795589
1.03740E+06 0.00796107
1.03797E+06 0.00796292
1.03968E+06 0.00796845
1.04071E+06 0.00797179
1.04163E+06 0.00797476
1.04197E+06 0.00797586
1.04255E+06 0.00797774
1.04312E+06 0.00797959
1.04405E+06 0.00798260
1.04422E+06 0.00798315
1.04445E+06 0.00798389
1.04451E+06 0.00798409
1.04468E+06 0.00798464
1.04509E+06 0.00798596
1.04561E+06 0.00798765
1.04613E+06 0.00798933
1.04630E+06 0.00798988
1.04688E+06 0.00799176
1.04810E+06 0.00799571
1.04868E+06 0.00799759
1.05007E+06 0.00800208
1.05100E+06 0.00800510
1.05146E+06 0.00800658
1.05181E+06 0.00800772
1.05263E+06 0.00801037
1.05298E+06 0.00801151
1.05345E+06 0.00801303
1.05357E+06 0.00801341
1.05369E+06 0.00801380
1.05474E+06 0.00801720
1.05638E+06 0.00802251
1.05755E+06 0.00802630
1.05802E+06 0.00802782
1.05837E+06 0.00802895
1.05919E+06 0.00803161
1.05990E+06 0.00803391
1.06049E+06 0.00803582
1.06084E+06 0.00803695
1.06120E+06 0.00803811
1.06167E+06 0.00803964
1.06249E+06 0.00804229
1.06344E+06 0.00804537
1.06380E+06 0.00804653
1.06439E+06 0.00804844
1.06498E+06 0.00805035
1.06593E+06 0.00805343
1.06629E+06 0.00805459
1.06652E+06 0.00805534
1.06747E+06 0.00805841
1.06771E+06 0.00805919
1.06831E+06 0.00806113
1.06890E+06 0.00806304
1.06938E+06 0.00806459
1.07010E+06 0.00806693
1.07105E+06 0.00807000
1.07273E+06 0.00807544
1.07357E+06 0.00807816
1.07429E+06 0.00808049
1.07477E+06 0.00808204
1.07501E+06 0.00808282
1.07573E+06 0.00808515
1.07657E+06 0.00808787
1.07706E+06 0.00808946
1.07742E+06 0.00809062
1.07802E+06 0.00809256
1.07887E+06 0.00809532
1.07923E+06 0.00809648
1.07972E+06 0.00809807
1.08032E+06 0.00810001
1.08068E+06 0.00810117
1.08200E+06 0.00810545
1.08255E+06 0.00810723
1.08291E+06 0.00810839
1.08334E+06 0.00810979
1.08370E+06 0.00811095
1.08401E+06 0.00811195
1.08453E+06 0.00811364
1.08562E+06 0.00811717
1.08697E+06 0.00812154
1.08782E+06 0.00812429
1.08831E+06 0.00812587
1.08917E+06 0.00812866
1.08954E+06 0.00812986
1.08991E+06 0.00813105
1.09015E+06 0.00813183
1.09089E+06 0.00813423
1.09151E+06 0.00813623
1.09249E+06 0.00813941
1.09372E+06 0.00814339
1.09508E+06 0.00814779
1.09694E+06 0.00815381
1.09732E+06 0.00815504
1.09819E+06 0.00815786
1.09943E+06 0.00816187
1.10133E+06 0.00816802
1.10157E+06 0.00816880
1.10220E+06 0.00817084
1.10257E+06 0.00817204
1.10330E+06 0.00817440
1.10417E+06 0.00817722
1.10467E+06 0.00817883
1.10530E+06 0.00818087
1.10568E+06 0.00818210
1.10618E+06 0.00818372
1.10681E+06 0.00818576
1.10744E+06 0.00818780
1.10832E+06 0.00819065
1.10920E+06 0.00819350
1.10970E+06 0.00819512
1.11097E+06 0.00819923
1.11160E+06 0.00820127
1.11223E+06 0.00820331
1.11299E+06 0.00820577
1.11362E+06 0.00820781
1.11426E+06 0.00820988
1.11464E+06 0.00821111
1.11489E+06 0.00821192
1.11565E+06 0.00821438
1.11629E+06 0.00821645
1.11743E+06 0.00822014
1.11794E+06 0.00822179
1.11846E+06 0.00822347
1.11935E+06 0.00822636
1.11999E+06 0.00822843
1.12076E+06 0.00823092
1.12165E+06 0.00823380
1.12191E+06 0.00823464
1.12255E+06 0.00823671
1.12332E+06 0.00823921
1.12435E+06 0.00824254
1.12474E+06 0.00824380
1.12499E+06 0.00824461
1.12693E+06 0.00825089
1.12757E+06 0.00825296
1.12822E+06 0.00825507
1.12886E+06 0.00825714
1.12938E+06 0.00825882
1.13005E+06 0.00826099
1.13070E+06 0.00826310
1.13109E+06 0.00826436
1.13129E+06 0.00826501
1.13148E+06 0.00826562
1.13227E+06 0.00826818
1.13305E+06 0.00827070
1.13370E+06 0.00827281
1.13501E+06 0.00827705
1.13566E+06 0.00827915
1.13592E+06 0.00827999
1.13670E+06 0.00828252
1.13775E+06 0.00828592
1.13919E+06 0.00829058
1.13985E+06 0.00829272
1.14064E+06 0.00829527
1.14143E+06 0.00829783
1.14210E+06 0.00830000
1.14261E+06 0.00829878
1.14314E+06 0.00829750
1.14368E+06 0.00829621
1.14394E+06 0.00829558
1.14434E+06 0.00829462
1.14513E+06 0.00829273
1.14632E+06 0.00828987
1.14659E+06 0.00828922
1.14765E+06 0.00828668
1.14831E+06 0.00828510
1.14937E+06 0.00828255
1.15044E+06 0.00827998
1.15177E+06 0.00827679
1.15244E+06 0.00827518
1.15297E+06 0.00827391
1.15377E+06 0.00827199
1.15511E+06 0.00826878
1.15605E+06 0.00826652
1.15659E+06 0.00826522
1.15685E+06 0.00826460
1.15739E+06 0.00826330
1.15847E+06 0.00826071
1.15887E+06 0.00825975
1.15995E+06 0.00825716
1.16116E+06 0.00825426
1.16143E+06 0.00825361
1.16238E+06 0.00825133
1.16332E+06 0.00824907
1.16373E+06 0.00824809
1.16427E+06 0.00824679
1.16468E+06 0.00824581
1.16495E+06 0.00824516
1.16604E+06 0.00824254
1.16644E+06 0.00824158
1.16699E+06 0.00824026
1.16808E+06 0.00823765
1.16849E+06 0.00823666
1.17000E+06 0.00823304
1.17026E+06 0.00823242
1.17122E+06 0.00823011
1.17204E+06 0.00822814
1.17313E+06 0.00822553
1.17396E+06 0.00822354
1.17451E+06 0.00822222
1.17561E+06 0.00821958
1.17616E+06 0.00821826
1.17726E+06 0.00821562
1.17795E+06 0.00821396
1.17864E+06 0.00821230
1.17905E+06 0.00821132
1.18016E+06 0.00820866
1.18099E+06 0.00820666
1.18168E+06 0.00820501
1.18265E+06 0.00820268
1.18321E+06 0.00820134
1.18348E+06 0.00820069
1.18462E+06 0.00819795
1.18602E+06 0.00819459
1.18710E+06 0.00819200
1.18748E+06 0.00819139
1.18853E+06 0.00818971
1.18958E+06 0.00818803
1.19042E+06 0.00818669
1.19147E+06 0.00818501
1.19210E+06 0.00818400
1.19211E+06 0.00818246
1.19310E+06 0.00792800
1.19367E+06 0.00778208
1.19416E+06 0.00765664
1.19472E+06 0.00751328
1.19514E+06 0.00740576
1.19543E+06 0.00733152
1.19657E+06 0.00703968
1.19710E+06 0.00690400
1.19875E+06 0.00686249
1.20030E+06 0.00682350
1.20116E+06 0.00680187
1.20372E+06 0.00673747
1.20400E+06 0.00673043
1.20472E+06 0.00671232
1.20557E+06 0.00669093
1.20700E+06 0.00665496
1.20829E+06 0.00662251
1.20987E+06 0.00658276
1.21116E+06 0.00655031
1.21332E+06 0.00649598
1.21389E+06 0.00648164
1.21432E+06 0.00647082
1.21461E+06 0.00646353
1.21482E+06 0.00645824
1.21511E+06 0.00645095
1.21610E+06 0.00642604
1.21741E+06 0.00639309
1.21799E+06 0.00637850
1.21842E+06 0.00636768
1.21975E+06 0.00633423
1.22106E+06 0.00630127
1.22164E+06 0.00628668
1.22266E+06 0.00626102
1.22295E+06 0.00625373
1.22332E+06 0.00624442
1.22383E+06 0.00623159
1.22448E+06 0.00621524
1.22470E+06 0.00620971
1.22500E+06 0.00620216
1.22536E+06 0.00619310
1.22565E+06 0.00618581
1.22624E+06 0.00617097
1.22705E+06 0.00615059
1.22756E+06 0.00613776
1.22771E+06 0.00613399
1.22800E+06 0.00612669
1.22866E+06 0.00611009
1.22910E+06 0.00609902
1.22925E+06 0.00609525
1.22947E+06 0.00608972
1.22976E+06 0.00608242
1.22999E+06 0.00607663
1.23028E+06 0.00606934
1.23096E+06 0.00605223
1.23162E+06 0.00603563
1.23280E+06 0.00600595
1.23369E+06 0.00598356
1.23458E+06 0.00596117
1.23605E+06 0.00592419
1.23701E+06 0.00590004
1.23776E+06 0.00588118
1.23805E+06 0.00587388
1.23820E+06 0.00587011
1.23865E+06 0.00585879
1.23887E+06 0.00585325
1.23939E+06 0.00584017
1.23963E+06 0.00583413
1.24015E+06 0.00582105
1.24104E+06 0.00579867
1.24149E+06 0.00578735
1.24210E+06 0.00577200
1.24239E+06 0.00577138
1.24358E+06 0.00576885
1.24418E+06 0.00576758
1.24463E+06 0.00576662
1.24493E+06 0.00576598
1.24568E+06 0.00576439
1.24673E+06 0.00576215
1.24718E+06 0.00576120
1.24793E+06 0.00575960
1.24914E+06 0.00575703
1.25000E+06 0.00575520
1.25034E+06 0.00575447
1.25065E+06 0.00575382
1.25087E+06 0.00575335
1.25162E+06 0.00575175
1.25283E+06 0.00574918
1.25404E+06 0.00574660
1.25586E+06 0.00574273
1.25662E+06 0.00574112
1.25753E+06 0.00573918
1.25921E+06 0.00573561
1.25982E+06 0.00573431
1.26089E+06 0.00573204
1.26135E+06 0.00573106
1.26226E+06 0.00572912
1.26410E+06 0.00572521
1.26548E+06 0.00572227
1.26579E+06 0.00572161
1.26665E+06 0.00571978
1.26700E+06 0.00571904
1.26761E+06 0.00571774
1.26777E+06 0.00571740
1.26823E+06 0.00571642
1.26839E+06 0.00571608
1.26900E+06 0.00571479
1.26962E+06 0.00571347
1.27051E+06 0.00571157
1.27128E+06 0.00570994
1.27361E+06 0.00570498
1.27469E+06 0.00570268
1.27594E+06 0.00570003
1.27656E+06 0.00569871
1.27687E+06 0.00569805
1.27843E+06 0.00569473
1.27921E+06 0.00569307
1.27999E+06 0.00569141
1.28063E+06 0.00569005
1.28204E+06 0.00568705
1.28243E+06 0.00568622
1.28335E+06 0.00568426
1.28460E+06 0.00568161
1.28617E+06 0.00567827
1.28775E+06 0.00567491
1.28822E+06 0.00567391
1.28933E+06 0.00567155
1.28980E+06 0.00567055
1.29059E+06 0.00566887
1.29257E+06 0.00566465
1.29368E+06 0.00566229
1.29408E+06 0.00566144
1.29423E+06 0.00566112
1.29567E+06 0.00565806
1.29678E+06 0.00565570
1.29750E+06 0.00565417
1.29878E+06 0.00565145
1.29910E+06 0.00565077
1.29950E+06 0.00564991
1.30033E+06 0.00564815
1.30129E+06 0.00564611
1.30274E+06 0.00564302
1.30322E+06 0.00564200
1.30418E+06 0.00563996
1.30467E+06 0.00563892
1.30611E+06 0.00563586
1.30692E+06 0.00563413
1.30724E+06 0.00563345
1.30805E+06 0.00563173
1.30870E+06 0.00563035
1.31064E+06 0.00562622
1.31161E+06 0.00562416
1.31307E+06 0.00562105
1.31433E+06 0.00561837
1.31480E+06 0.00561737
1.31561E+06 0.00561565
1.31618E+06 0.00561444
1.31732E+06 0.00561201
1.31781E+06 0.00561097
1.31830E+06 0.00560993
1.31936E+06 0.00560767
1.31969E+06 0.00560697
1.32018E+06 0.00560593
1.32100E+06 0.00560419
1.32206E+06 0.00560193
1.32529E+06 0.00559506
1.32678E+06 0.00559189
1.32719E+06 0.00559102
1.32744E+06 0.00559049
1.32768E+06 0.00558998
1.32859E+06 0.00558804
1.32909E+06 0.00558698
1.32934E+06 0.00558645
1.33107E+06 0.00558277
1.33157E+06 0.00558170
1.33240E+06 0.00557994
1.33257E+06 0.00557958
1.33290E+06 0.00557888
1.33315E+06 0.00557834
1.33340E+06 0.00557781
1.33406E+06 0.00557641
1.33473E+06 0.00557498
1.33680E+06 0.00557058
1.33897E+06 0.00556596
1.33997E+06 0.00556384
1.34148E+06 0.00556063
1.34166E+06 0.00556024
1.34200E+06 0.00555952
1.34316E+06 0.00555705
1.34451E+06 0.00555418
1.34560E+06 0.00555186
1.34602E+06 0.00555097
1.34670E+06 0.00554952
1.34695E+06 0.00554899
1.34746E+06 0.00554791
1.34796E+06 0.00554684
1.34813E+06 0.00554648
1.34856E+06 0.00554557
1.34923E+06 0.00554414
1.34982E+06 0.00554289
1.35008E+06 0.00554233
1.35042E+06 0.00554161
1.35118E+06 0.00554000
1.35152E+06 0.00553927
1.35177E+06 0.00553874
1.35211E+06 0.00553802
1.35271E+06 0.00553674
1.35347E+06 0.00553512
1.35415E+06 0.00553368
1.35449E+06 0.00553295
1.35526E+06 0.00553132
1.35594E+06 0.00552987
1.35714E+06 0.00552732
1.35850E+06 0.00552443
1.36038E+06 0.00552043
1.36210E+06 0.00551677
1.36416E+06 0.00551239
1.36605E+06 0.00550837
1.36709E+06 0.00550616
1.36766E+06 0.00550494
1.36800E+06 0.00550422
1.36835E+06 0.00550348
1.36904E+06 0.00550201
1.36973E+06 0.00550054
1.37034E+06 0.00549924
1.37077E+06 0.00549833
1.37103E+06 0.00549778
1.37120E+06 0.00549741
1.37189E+06 0.00549595
1.37250E+06 0.00549465
1.37302E+06 0.00549354
1.37364E+06 0.00549222
1.37469E+06 0.00548999
1.37556E+06 0.00548814
1.37712E+06 0.00548482
1.37904E+06 0.00548074
1.37939E+06 0.00547999
1.37974E+06 0.00547925
1.38044E+06 0.00547776
1.38114E+06 0.00547627
1.38237E+06 0.00547366
1.38272E+06 0.00547291
1.38342E+06 0.00547142
1.38430E+06 0.00546955
1.38483E+06 0.00546842
1.38624E+06 0.00546542
1.38712E+06 0.00546355
1.38784E+06 0.00546202
1.38890E+06 0.00545977
1.39014E+06 0.00545713
1.39120E+06 0.00545488
1.39191E+06 0.00545337
1.39332E+06 0.00545037
1.39475E+06 0.00544732
1.39760E+06 0.00544126
1.40063E+06 0.00543482
1.40206E+06 0.00543178
1.40260E+06 0.00543063
1.40368E+06 0.00542833
1.40422E+06 0.00542718
1.40547E+06 0.00542452
1.40637E+06 0.00542261
1.40709E+06 0.00542108
1.40745E+06 0.00542031
1.40872E+06 0.00541761
1.40962E+06 0.00541570
1.41051E+06 0.00541380
1.41070E+06 0.00541340
1.41106E+06 0.00541263
1.41251E+06 0.00540955
1.41342E+06 0.00540761
1.41433E+06 0.00540568
1.41542E+06 0.00540336
1.41705E+06 0.00539989
1.41887E+06 0.00539602
1.41997E+06 0.00539368
1.42180E+06 0.00538979
1.42235E+06 0.00538862
1.42271E+06 0.00538786
1.42320E+06 0.00538681
1.42436E+06 0.00538435
1.42509E+06 0.00538279
1.42610E+06 0.00538065
1.42629E+06 0.00538024
1.42721E+06 0.00537828
1.42822E+06 0.00537614
1.42891E+06 0.00537467
1.43020E+06 0.00537193
1.43093E+06 0.00537037
1.43223E+06 0.00536761
1.43482E+06 0.00536210
1.43519E+06 0.00536131
1.43649E+06 0.00535855
1.43686E+06 0.00535776
1.43910E+06 0.00535300
1.44022E+06 0.00535061
1.44134E+06 0.00534823
1.44171E+06 0.00534744
1.44264E+06 0.00534547
1.44339E+06 0.00534387
1.44396E+06 0.00534266
1.44696E+06 0.00533628
1.44902E+06 0.00533190
1.44940E+06 0.00533109
1.45053E+06 0.00532868
1.45147E+06 0.00532669
1.45185E+06 0.00532588
1.45281E+06 0.00532384
1.45357E+06 0.00532222
1.45508E+06 0.00531901
1.45660E+06 0.00531577
1.45808E+06 0.00531263
1.45853E+06 0.00531167
1.46015E+06 0.00530822
1.46072E+06 0.00530701
1.46139E+06 0.00530559
1.46305E+06 0.00530206
1.46554E+06 0.00529676
1.46630E+06 0.00529514
1.46688E+06 0.00529391
1.46803E+06 0.00529146
1.46899E+06 0.00528942
1.47226E+06 0.00528247
1.47265E+06 0.00528164
1.47419E+06 0.00527836
1.47593E+06 0.00527466
1.47709E+06 0.00527219
1.47864E+06 0.00526890
1.47981E+06 0.00526641
1.48136E+06 0.00526311
1.48195E+06 0.00526186
1.48292E+06 0.00525979
1.48351E+06 0.00525854
1.48507E+06 0.00525522
1.48683E+06 0.00525148
1.48878E+06 0.00524733
1.48937E+06 0.00524607
1.49134E+06 0.00524188
1.49271E+06 0.00523897
1.49350E+06 0.00523729
1.49449E+06 0.00523518
1.49626E+06 0.00523142
1.49705E+06 0.00522974
1.49883E+06 0.00522595
1.49923E+06 0.00522510
1.49964E+06 0.00522423
1.50000E+06 0.00522347
1.50103E+06 0.00522127
1.50153E+06 0.00522021
1.50203E+06 0.00521915
1.50252E+06 0.00521811
1.50322E+06 0.00521662
1.50382E+06 0.00521534
1.50649E+06 0.00520966
1.50709E+06 0.00520839
1.50869E+06 0.00520498
1.50989E+06 0.00520243
1.51170E+06 0.00519858
1.51471E+06 0.00519218
1.51571E+06 0.00519005
1.51652E+06 0.00518833
1.51773E+06 0.00518575
1.51835E+06 0.00518444
1.52017E+06 0.00518057
1.52139E+06 0.00517797
1.52463E+06 0.00517108
1.52646E+06 0.00516719
1.52789E+06 0.00516415
1.52932E+06 0.00516110
1.52973E+06 0.00516023
1.53054E+06 0.00515851
1.53116E+06 0.00515719
1.53177E+06 0.00515589
1.53259E+06 0.00515415
1.53361E+06 0.00515198
1.53423E+06 0.00515066
1.53484E+06 0.00514936
1.53587E+06 0.00514717
1.53690E+06 0.00514498
1.53813E+06 0.00514237
1.53896E+06 0.00514060
1.54081E+06 0.00513667
1.54164E+06 0.00513490
1.54350E+06 0.00513094
1.54633E+06 0.00512492
1.54716E+06 0.00512316
1.54788E+06 0.00512163
1.54851E+06 0.00512029
1.54903E+06 0.00511918
1.55038E+06 0.00511631
1.55059E+06 0.00511586
1.55132E+06 0.00511431
1.55262E+06 0.00511155
1.55471E+06 0.00510710
1.55534E+06 0.00510576
1.55660E+06 0.00510308
1.55722E+06 0.00510176
1.55806E+06 0.00509998
1.55953E+06 0.00509685
1.56122E+06 0.00509325
1.56185E+06 0.00509191
1.56311E+06 0.00508923
1.56396E+06 0.00508743
1.56544E+06 0.00508428
1.56607E+06 0.00508294
1.56713E+06 0.00508068
1.56819E+06 0.00507843
1.57095E+06 0.00507256
1.57244E+06 0.00506939
1.57329E+06 0.00506758
1.57371E+06 0.00506669
1.57521E+06 0.00506350
1.57627E+06 0.00506124
1.57734E+06 0.00505897
1.57798E+06 0.00505761
1.57905E+06 0.00505533
1.57991E+06 0.00505350
1.58141E+06 0.00505031
1.58291E+06 0.00504712
1.58463E+06 0.00504346
1.58567E+06 0.00504125
1.58630E+06 0.00503991
1.58684E+06 0.00503876
1.58722E+06 0.00503795
1.58758E+06 0.00503719
1.58952E+06 0.00503306
1.59060E+06 0.00503077
1.59170E+06 0.00502843
1.59279E+06 0.00502611
1.59366E+06 0.00502426
1.59474E+06 0.00502196
1.59561E+06 0.00502011
1.59692E+06 0.00501732
1.59779E+06 0.00501547
1.59888E+06 0.00501315
1.60107E+06 0.00500850
1.60194E+06 0.00500665
1.60325E+06 0.00500386
1.60457E+06 0.00500105
1.60545E+06 0.00499918
1.60611E+06 0.00499778
1.60776E+06 0.00499427
1.60812E+06 0.00499350
1.60900E+06 0.00499163
1.60988E+06 0.00498976
1.61055E+06 0.00498833
1.61099E+06 0.00498740
1.61154E+06 0.00498623
1.61187E+06 0.00498553
1.61298E+06 0.00498316
1.61342E+06 0.00498223
1.61521E+06 0.00497842
1.61698E+06 0.00497466
1.61765E+06 0.00497323
1.61898E+06 0.00497040
1.62054E+06 0.00496709
1.62143E+06 0.00496519
1.62210E+06 0.00496377
1.62254E+06 0.00496283
1.62433E+06 0.00495902
1.62540E+06 0.00495675
1.62593E+06 0.00495562
1.62627E+06 0.00495490
1.62683E+06 0.00495371
1.62772E+06 0.00495181
1.62817E+06 0.00495086
1.62862E+06 0.00494990
1.62896E+06 0.00494918
1.62963E+06 0.00494775
1.63162E+06 0.00494352
1.63568E+06 0.00493488
1.63749E+06 0.00493103
1.63907E+06 0.00492767
1.63975E+06 0.00492623
1.64088E+06 0.00492382
1.64157E+06 0.00492236
1.64202E+06 0.00492140
1.64270E+06 0.00491995
1.64338E+06 0.00491851
1.64384E+06 0.00491753
1.64429E+06 0.00491657
1.64611E+06 0.00491270
1.64726E+06 0.00491025
1.64840E+06 0.00490783
1.64886E+06 0.00490685
1.65160E+06 0.00490102
1.65297E+06 0.00489811
1.65389E+06 0.00489615
1.65550E+06 0.00489273
1.65665E+06 0.00489028
1.65965E+06 0.00488390
1.66057E+06 0.00488194
1.66126E+06 0.00488048
1.66219E+06 0.00487850
1.66358E+06 0.00487554
1.66406E+06 0.00487452
1.66708E+06 0.00486810
1.66801E+06 0.00486612
1.66987E+06 0.00486216
1.67127E+06 0.00485919
1.67197E+06 0.00485770
1.67430E+06 0.00485274
1.67571E+06 0.00484974
1.67782E+06 0.00484525
1.67876E+06 0.00484326
1.67993E+06 0.00484077
1.68111E+06 0.00483826
1.68205E+06 0.00483626
1.68417E+06 0.00483175
1.68559E+06 0.00482873
1.68748E+06 0.00482471
1.68795E+06 0.00482371
1.69151E+06 0.00481614
1.69341E+06 0.00481210
1.69483E+06 0.00480908
1.69650E+06 0.00480552
1.69722E+06 0.00480399
1.69865E+06 0.00480095
1.69961E+06 0.00479891
1.70000E+06 0.00479808
1.70200E+06 0.00479383
1.70344E+06 0.00479076
1.70392E+06 0.00478974
1.70512E+06 0.00478719
1.70584E+06 0.00478566
1.70777E+06 0.00478155
1.70970E+06 0.00477745
1.71066E+06 0.00477541
1.71115E+06 0.00477436
1.71236E+06 0.00477179
1.71356E+06 0.00476924
1.71429E+06 0.00476769
1.71502E+06 0.00476613
1.71672E+06 0.00476252
1.71818E+06 0.00475941
1.72110E+06 0.00475320
1.72183E+06 0.00475165
1.72232E+06 0.00475061
1.72354E+06 0.00474801
1.72549E+06 0.00474386
1.72696E+06 0.00474074
1.72868E+06 0.00473708
1.73064E+06 0.00473291
1.73138E+06 0.00473134
1.73236E+06 0.00472925
1.73310E+06 0.00472768
1.73705E+06 0.00471928
1.73952E+06 0.00471402
1.74125E+06 0.00471034
1.74349E+06 0.00470558
1.74523E+06 0.00470188
1.74748E+06 0.00469709
1.74922E+06 0.00469339
1.75000E+06 0.00469173
1.75197E+06 0.00468754
1.75322E+06 0.00468488
1.75548E+06 0.00468008
1.75649E+06 0.00467793
1.75726E+06 0.00467629
1.75927E+06 0.00467202
1.76028E+06 0.00466987
1.76281E+06 0.00466449
1.76483E+06 0.00466019
1.76914E+06 0.00465102
1.77245E+06 0.00464398
1.77449E+06 0.00463964
1.77653E+06 0.00463531
1.77730E+06 0.00463367
1.77934E+06 0.00462933
1.78165E+06 0.00462442
1.78294E+06 0.00462167
1.78371E+06 0.00462003
1.78551E+06 0.00461621
1.78783E+06 0.00461127
1.78886E+06 0.00460908
1.79352E+06 0.00459917
1.79534E+06 0.00459530
1.79638E+06 0.00459309
1.79820E+06 0.00458921
1.79950E+06 0.00458645
1.80028E+06 0.00458479
1.80132E+06 0.00458258
1.80315E+06 0.00457869
1.80577E+06 0.00457311
1.80708E+06 0.00457033
1.80892E+06 0.00456641
1.81076E+06 0.00456250
1.81155E+06 0.00456082
1.81260E+06 0.00455859
1.81471E+06 0.00455410
1.81735E+06 0.00454848
1.81841E+06 0.00454623
1.81947E+06 0.00454398
1.82159E+06 0.00453947
1.82291E+06 0.00453666
1.82504E+06 0.00453213
1.82558E+06 0.00453098
1.82771E+06 0.00452645
1.82931E+06 0.00452305
1.83038E+06 0.00452077
1.83547E+06 0.00450994
1.83735E+06 0.00450595
1.83816E+06 0.00450422
1.83869E+06 0.00450310
1.84031E+06 0.00449965
1.84139E+06 0.00449735
1.84328E+06 0.00449333
1.84409E+06 0.00449161
1.84544E+06 0.00448874
1.84598E+06 0.00448759
1.84679E+06 0.00448587
1.84788E+06 0.00448355
1.84896E+06 0.00448125
1.85032E+06 0.00447836
1.85250E+06 0.00447372
1.85359E+06 0.00447140
1.85495E+06 0.00446851
1.85659E+06 0.00446502
1.85768E+06 0.00446271
1.85959E+06 0.00445864
1.86014E+06 0.00445747
1.86096E+06 0.00445573
1.86233E+06 0.00445281
1.86386E+06 0.00444956
1.86661E+06 0.00444371
1.86771E+06 0.00444137
1.87020E+06 0.00443608
1.87130E+06 0.00443374
1.87324E+06 0.00442961
1.87407E+06 0.00442784
1.87629E+06 0.00442312
1.87712E+06 0.00442136
1.87767E+06 0.00442019
1.87962E+06 0.00441604
1.88045E+06 0.00441427
1.88296E+06 0.00440894
1.88548E+06 0.00440358
1.88603E+06 0.00440241
1.88855E+06 0.00439705
1.88940E+06 0.00439524
1.89079E+06 0.00439228
1.89276E+06 0.00438809
1.89614E+06 0.00438090
1.89811E+06 0.00437671
1.89953E+06 0.00437369
1.90000E+06 0.00437269
1.90179E+06 0.00436889
1.90292E+06 0.00436648
1.90406E+06 0.00436406
1.90519E+06 0.00436165
1.90832E+06 0.00435500
1.90946E+06 0.00435257
1.91117E+06 0.00434894
1.91231E+06 0.00434651
1.91374E+06 0.00434347
1.91488E+06 0.00434104
1.91602E+06 0.00433862
1.91775E+06 0.00433494
1.91861E+06 0.00433311
1.92292E+06 0.00432394
1.92436E+06 0.00432088
1.92580E+06 0.00431782
1.92753E+06 0.00431414
1.92956E+06 0.00430982
1.93187E+06 0.00430491
1.93245E+06 0.00430367
1.93390E+06 0.00430059
1.93535E+06 0.00429751
1.93623E+06 0.00429563
1.93885E+06 0.00429006
1.94002E+06 0.00428757
1.94147E+06 0.00428449
1.94206E+06 0.00428323
1.94352E+06 0.00428013
1.94469E+06 0.00427764
1.94674E+06 0.00427328
1.94909E+06 0.00426828
1.94997E+06 0.00426641
1.95144E+06 0.00426328
1.95262E+06 0.00426077
1.95380E+06 0.00425826
1.95793E+06 0.00424948
1.96178E+06 0.00424129
1.96445E+06 0.00423561
1.96624E+06 0.00423181
1.96803E+06 0.00422800
1.96833E+06 0.00422736
1.96922E+06 0.00422547
1.97161E+06 0.00422038
1.97340E+06 0.00421658
1.97460E+06 0.00421402
1.97610E+06 0.00421083
1.97760E+06 0.00420764
1.98060E+06 0.00420126
1.98302E+06 0.00419612
1.98452E+06 0.00419293
1.98603E+06 0.00418971
1.98755E+06 0.00418648
1.98967E+06 0.00418197
1.99300E+06 0.00417489
1.99452E+06 0.00417166
1.99604E+06 0.00416842
1.99787E+06 0.00416453
1.99940E+06 0.00416128
2.00000E+06 0.00416000
2.00000E+06 0.00416000
2.00062E+06 0.00415962
2.00215E+06 0.00415869
2.00429E+06 0.00415738
2.00613E+06 0.00415626
2.00705E+06 0.00415570
2.00858E+06 0.00415477
2.00951E+06 0.00415420
2.01054E+06 0.00415357
2.01259E+06 0.00415232
2.01435E+06 0.00415125
2.01581E+06 0.00415036
2.01905E+06 0.00414838
2.02022E+06 0.00414767
2.02259E+06 0.00414622
2.02436E+06 0.00414514
2.02731E+06 0.00414334
2.02850E+06 0.00414262
2.02998E+06 0.00414171
2.03266E+06 0.00414008
2.03385E+06 0.00413935
2.03534E+06 0.00413844
2.03623E+06 0.00413790
2.03712E+06 0.00413736
2.03862E+06 0.00413644
2.04101E+06 0.00413498
2.04191E+06 0.00413444
2.04370E+06 0.00413334
2.04851E+06 0.00413041
2.05001E+06 0.00412949
2.05062E+06 0.00412912
2.05242E+06 0.00412802
2.05363E+06 0.00412729
2.05514E+06 0.00412637
2.05786E+06 0.00412471
2.06120E+06 0.00412267
2.06211E+06 0.00412211
2.06393E+06 0.00412100
2.06820E+06 0.00411840
2.07064E+06 0.00411691
2.07187E+06 0.00411616
2.07463E+06 0.00411448
2.07585E+06 0.00411373
2.07830E+06 0.00411224
2.07923E+06 0.00411167
2.08015E+06 0.00411111
2.08200E+06 0.00410998
2.08238E+06 0.00410975
2.08240E+06 0.00410974
2.08324E+06 0.00410922
2.08540E+06 0.00410791
2.08663E+06 0.00410716
2.08880E+06 0.00410583
2.09035E+06 0.00410489
2.09345E+06 0.00410300
2.09470E+06 0.00410223
2.09594E+06 0.00410148
2.09719E+06 0.00410071
2.09937E+06 0.00409938
2.10031E+06 0.00409881
2.10375E+06 0.00409671
2.10531E+06 0.00409576
2.10751E+06 0.00409442
2.10876E+06 0.00409366
2.10970E+06 0.00409308
2.11160E+06 0.00409192
2.11412E+06 0.00409039
2.11696E+06 0.00408865
2.12107E+06 0.00408615
2.12361E+06 0.00408460
2.12934E+06 0.00408110
2.13157E+06 0.00407974
2.13445E+06 0.00407799
2.13637E+06 0.00407681
2.13736E+06 0.00407621
2.14154E+06 0.00407366
2.14411E+06 0.00407209
2.14604E+06 0.00407092
2.14668E+06 0.00407053
2.14895E+06 0.00406914
2.15024E+06 0.00406835
2.15186E+06 0.00406737
2.15413E+06 0.00406598
2.15803E+06 0.00406360
2.16063E+06 0.00406202
2.16357E+06 0.00406022
2.16717E+06 0.00405803
2.17044E+06 0.00405603
2.17702E+06 0.00405202
2.17867E+06 0.00405101
2.17999E+06 0.00405021
2.18164E+06 0.00404920
2.18395E+06 0.00404779
2.18528E+06 0.00404698
2.18694E+06 0.00404597
2.18893E+06 0.00404475
2.19059E+06 0.00404374
2.19293E+06 0.00404231
2.19493E+06 0.00404109
2.19660E+06 0.00404007
2.19927E+06 0.00403845
2.20195E+06 0.00403681
2.20329E+06 0.00403599
2.20598E+06 0.00403435
2.21036E+06 0.00403168
2.21137E+06 0.00403106
2.21238E+06 0.00403045
2.21407E+06 0.00402942
2.21644E+06 0.00402797
2.21983E+06 0.00402590
2.22289E+06 0.00402404
2.22527E+06 0.00402259
2.22800E+06 0.00402092
2.23175E+06 0.00401863
2.23346E+06 0.00401759
2.23655E+06 0.00401571
2.23965E+06 0.00401381
2.24205E+06 0.00401235
2.24343E+06 0.00401151
2.24516E+06 0.00401045
2.24723E+06 0.00400919
2.25000E+06 0.00400750
2.25035E+06 0.00400729
2.25346E+06 0.00400539
2.25555E+06 0.00400412
2.25729E+06 0.00400305
2.26112E+06 0.00400072
2.26426E+06 0.00399880
2.26671E+06 0.00399731
2.26847E+06 0.00399623
2.27201E+06 0.00399407
2.27870E+06 0.00398999
2.28224E+06 0.00398783
2.28365E+06 0.00398697
2.28755E+06 0.00398460
2.28933E+06 0.00398351
2.29039E+06 0.00398286
2.29146E+06 0.00398221
2.29395E+06 0.00398069
2.29609E+06 0.00397939
2.29788E+06 0.00397829
2.29967E+06 0.00397720
2.30074E+06 0.00397655
2.30182E+06 0.00397589
2.30397E+06 0.00397458
2.30613E+06 0.00397326
2.30828E+06 0.00397195
2.31044E+06 0.00397063
2.31153E+06 0.00396997
2.31224E+06 0.00396953
2.31477E+06 0.00396799
2.31622E+06 0.00396711
2.31948E+06 0.00396512
2.32129E+06 0.00396401
2.32383E+06 0.00396246
2.32492E+06 0.00396180
2.32711E+06 0.00396046
2.33186E+06 0.00395757
2.33441E+06 0.00395601
2.33698E+06 0.00395444
2.33881E+06 0.00395333
2.33950E+06 0.00395291
2.33950E+06 0.00395291
2.34322E+06 0.00395064
2.34543E+06 0.00394929
2.34765E+06 0.00394793
2.34949E+06 0.00394681
2.35356E+06 0.00394433
2.35505E+06 0.00394342
2.35801E+06 0.00394161
2.36546E+06 0.00393707
2.36883E+06 0.00393501
2.37295E+06 0.00393250
2.37400E+06 0.00393186
2.37405E+06 0.00393183
2.37558E+06 0.00393090
2.37858E+06 0.00392907
2.37972E+06 0.00392837
2.38311E+06 0.00392630
2.38576E+06 0.00392469
2.39068E+06 0.00392169
2.39334E+06 0.00392006
2.39486E+06 0.00391914
2.39600E+06 0.00391844
2.39790E+06 0.00391728
2.39981E+06 0.00391612
2.40057E+06 0.00391565
2.40248E+06 0.00391449
2.40554E+06 0.00391262
2.40938E+06 0.00391028
2.41245E+06 0.00390841
2.41476E+06 0.00390700
2.41785E+06 0.00390511
2.42016E+06 0.00390370
2.42171E+06 0.00390276
2.42291E+06 0.00390203
2.42639E+06 0.00389990
2.42911E+06 0.00389824
2.43261E+06 0.00389611
2.43729E+06 0.00389325
2.43924E+06 0.00389206
2.44159E+06 0.00389063
2.44394E+06 0.00388920
2.44551E+06 0.00388824
2.44748E+06 0.00388704
2.44945E+06 0.00388584
2.45141E+06 0.00388464
2.45456E+06 0.00388272
2.45615E+06 0.00388175
2.45812E+06 0.00388055
2.45970E+06 0.00387958
2.46129E+06 0.00387861
2.46446E+06 0.00387668
2.46803E+06 0.00387450
2.47162E+06 0.00387231
2.47362E+06 0.00387109
2.47681E+06 0.00386915
2.47842E+06 0.00386816
2.48082E+06 0.00386670
2.48403E+06 0.00386474
2.48604E+06 0.00386352
2.48926E+06 0.00386155
2.49290E+06 0.00385933
2.49370E+06 0.00385884
2.49613E+06 0.00385736
2.49735E+06 0.00385662
2.50000E+06 0.00385500
2.50140E+06 0.00385415
2.50384E+06 0.00385266
2.50546E+06 0.00385167
2.50873E+06 0.00384968
2.50995E+06 0.00384893
2.51322E+06 0.00384694
2.51649E+06 0.00384494
2.51813E+06 0.00384394
2.51936E+06 0.00384319
2.52142E+06 0.00384193
2.52265E+06 0.00384118
2.52471E+06 0.00383993
2.52635E+06 0.00383893
2.52801E+06 0.00383791
2.53007E+06 0.00383666
2.53172E+06 0.00383565
2.53420E+06 0.00383414
2.53657E+06 0.00383269
2.54155E+06 0.00382966
2.54530E+06 0.00382737
2.54780E+06 0.00382584
2.55471E+06 0.00382163
2.55785E+06 0.00381971
2.56038E+06 0.00381817
2.56416E+06 0.00381586
2.56796E+06 0.00381354
2.57304E+06 0.00381045
2.57748E+06 0.00380774
2.58030E+06 0.00380602
2.58158E+06 0.00380524
2.58457E+06 0.00380341
2.58670E+06 0.00380211
2.58755E+06 0.00380160
2.58969E+06 0.00380029
2.59312E+06 0.00379820
2.59530E+06 0.00379687
2.59917E+06 0.00379451
2.60347E+06 0.00379188
2.60649E+06 0.00379004
2.61082E+06 0.00378740
2.61212E+06 0.00378661
2.61343E+06 0.00378581
2.61646E+06 0.00378396
2.62037E+06 0.00378157
2.62648E+06 0.00377785
2.62954E+06 0.00377598
2.63304E+06 0.00377385
2.63524E+06 0.00377250
2.64008E+06 0.00376955
2.64802E+06 0.00376471
2.64979E+06 0.00376363
2.65378E+06 0.00376119
2.65511E+06 0.00376038
2.65600E+06 0.00375984
2.65733E+06 0.00375903
2.66000E+06 0.00375740
2.66133E+06 0.00375659
2.66357E+06 0.00375522
2.66670E+06 0.00375331
2.66849E+06 0.00375222
2.67162E+06 0.00375031
2.67431E+06 0.00374867
2.67521E+06 0.00374812
2.67791E+06 0.00374648
2.68016E+06 0.00374510
2.68376E+06 0.00374291
2.68738E+06 0.00374070
2.68873E+06 0.00373988
2.69100E+06 0.00373849
2.69372E+06 0.00373683
2.69599E+06 0.00373545
2.69872E+06 0.00373378
2.70055E+06 0.00373267
2.70191E+06 0.00373184
2.70328E+06 0.00373100
2.70556E+06 0.00372961
2.70830E+06 0.00372794
2.71104E+06 0.00372627
2.71448E+06 0.00372417
2.71930E+06 0.00372123
2.72553E+06 0.00371743
2.72969E+06 0.00371489
2.73317E+06 0.00371277
2.73665E+06 0.00371064
2.74154E+06 0.00370766
2.74503E+06 0.00370553
2.74713E+06 0.00370425
2.75000E+06 0.00370250
2.75064E+06 0.00370211
2.75416E+06 0.00369996
2.75698E+06 0.00369824
2.75980E+06 0.00369652
2.76121E+06 0.00369566
2.76546E+06 0.00369307
2.77183E+06 0.00368918
2.77611E+06 0.00368657
2.78039E+06 0.00368396
2.78611E+06 0.00368047
2.79185E+06 0.00367697
2.79616E+06 0.00367434
2.79977E+06 0.00367214
2.80266E+06 0.00367038
2.80989E+06 0.00366597
2.81642E+06 0.00366198
2.82087E+06 0.00365927
2.82818E+06 0.00365481
2.83406E+06 0.00365122
2.83920E+06 0.00364809
2.84364E+06 0.00364538
2.84806E+06 0.00364268
2.84955E+06 0.00364178
2.85474E+06 0.00363861
2.85771E+06 0.00363680
2.86069E+06 0.00363498
2.86516E+06 0.00363225
2.86890E+06 0.00362997
2.87265E+06 0.00362768
2.87864E+06 0.00362403
2.88392E+06 0.00362081
2.88770E+06 0.00361850
2.89526E+06 0.00361389
2.90212E+06 0.00360971
2.91203E+06 0.00360366
2.91587E+06 0.00360132
2.92047E+06 0.00359851
2.92586E+06 0.00359523
2.93203E+06 0.00359146
2.93668E+06 0.00358863
2.93809E+06 0.00358777
2.93810E+06 0.00358776
2.93978E+06 0.00358673
2.94289E+06 0.00358484
2.94912E+06 0.00358104
2.95458E+06 0.00357771
2.96164E+06 0.00357340
2.96713E+06 0.00357005
2.97186E+06 0.00356717
2.97423E+06 0.00356572
2.97898E+06 0.00356282
2.98294E+06 0.00356041
2.98612E+06 0.00355847
2.98850E+06 0.00355702
2.99170E+06 0.00355506
2.99728E+06 0.00355166
3.00000E+06 0.00355000
3.00770E+06 0.00354330
3.01010E+06 0.00354121
3.01414E+06 0.00353770
3.01897E+06 0.00353350
3.02302E+06 0.00352997
3.02829E+06 0.00352539
3.03533E+06 0.00351926
3.04294E+06 0.00351264
3.04513E+06 0.00351074
3.04731E+06 0.00350884
3.04895E+06 0.00350741
3.05004E+06 0.00350647
3.05442E+06 0.00350266
3.05716E+06 0.00350027
3.05937E+06 0.00349835
3.06156E+06 0.00349644
3.06542E+06 0.00349309
3.07309E+06 0.00348641
3.08223E+06 0.00347846
3.08974E+06 0.00347193
3.09309E+06 0.00346901
3.09729E+06 0.00346536
3.10402E+06 0.00345950
3.10993E+06 0.00345436
3.11330E+06 0.00345143
3.11507E+06 0.00344989
3.12951E+06 0.00343733
3.13635E+06 0.00343138
3.14064E+06 0.00342764
3.15182E+06 0.00341792
3.16217E+06 0.00340891
3.16999E+06 0.00340211
3.18045E+06 0.00339301
3.18482E+06 0.00338921
3.18920E+06 0.00338540
3.19359E+06 0.00338158
3.19976E+06 0.00337621
3.21302E+06 0.00336467
3.22280E+06 0.00335616
3.22726E+06 0.00335228
3.23711E+06 0.00334371
3.24340E+06 0.00333824
3.25152E+06 0.00333118
3.26784E+06 0.00331698
3.27512E+06 0.00331065
3.27787E+06 0.00330825
3.28886E+06 0.00329869
3.30084E+06 0.00328827
3.30732E+06 0.00328263
3.31195E+06 0.00327860
3.31753E+06 0.00327375
3.32218E+06 0.00326970
3.32405E+06 0.00326808
3.33155E+06 0.00326155
3.33623E+06 0.00325748
3.33904E+06 0.00325504
3.34187E+06 0.00325257
3.34847E+06 0.00324683
3.35414E+06 0.00324190
3.35887E+06 0.00323778
3.36362E+06 0.00323365
3.36647E+06 0.00323117
3.38366E+06 0.00321622
3.38847E+06 0.00321203
3.39810E+06 0.00320365
3.40390E+06 0.00319861
3.41359E+06 0.00319018
3.41942E+06 0.00318511
3.42137E+06 0.00318341
3.42577E+06 0.00317958
3.43189E+06 0.00317426
3.44826E+06 0.00316001
3.45651E+06 0.00315284
3.47308E+06 0.00313842
3.48140E+06 0.00313118
3.48307E+06 0.00312973
3.49310E+06 0.00312100
3.50000E+06 0.00311500
3.52178E+06 0.00309605
3.52857E+06 0.00309014
3.54737E+06 0.00307379
3.55596E+06 0.00306632
3.56647E+06 0.00305717
3.58558E+06 0.00304055
3.59781E+06 0.00302991
3.61365E+06 0.00301613
3.63848E+06 0.00299452
3.64742E+06 0.00298675
3.67259E+06 0.00296485
3.68345E+06 0.00295540
3.69437E+06 0.00294590
3.70167E+06 0.00293955
3.71818E+06 0.00292518
3.73480E+06 0.00291072
3.75341E+06 0.00289453
3.75902E+06 0.00288965
3.77406E+06 0.00287657
3.79675E+06 0.00285683
3.83120E+06 0.00282686
3.83891E+06 0.00282015
3.85441E+06 0.00280666
3.86609E+06 0.00279650
3.87980E+06 0.00278457
3.89950E+06 0.00276744
3.90742E+06 0.00276055
3.92135E+06 0.00274843
3.93136E+06 0.00273972
3.94336E+06 0.00272928
4.00000E+06 0.00268000
4.00239E+06 0.00267771
4.02510E+06 0.00265590
4.04176E+06 0.00263991
4.05851E+06 0.00262383
4.07114E+06 0.00261171
4.08385E+06 0.00259950
4.11155E+06 0.00257291
4.12442E+06 0.00256056
4.13952E+06 0.00254606
4.15472E+06 0.00253147
4.16561E+06 0.00252101
4.18314E+06 0.00250419
4.20298E+06 0.00248514
4.23863E+06 0.00245092
4.26566E+06 0.00242497
4.28156E+06 0.00240970
4.29983E+06 0.00239216
4.31363E+06 0.00237892
4.32286E+06 0.00237005
4.33907E+06 0.00235449
4.34601E+06 0.00234783
4.35770E+06 0.00233661
4.37198E+06 0.00232290
4.41458E+06 0.00228200
4.43607E+06 0.00226137
4.45537E+06 0.00224285
4.46990E+06 0.00222890
4.48451E+06 0.00221487
4.50000E+06 0.00220000
4.51641E+06 0.00218425
4.53160E+06 0.00216966
4.53163E+06 0.00216964
4.55364E+06 0.00214851
4.63208E+06 0.00207320
4.66038E+06 0.00204604
4.67851E+06 0.00202863
4.68894E+06 0.00201862
4.69676E+06 0.00201111
4.70988E+06 0.00199852
4.72833E+06 0.00198080
4.73625E+06 0.00197320
4.74690E+06 0.00196298
4.77093E+06 0.00193991
4.80323E+06 0.00190890
4.84680E+06 0.00186707
4.86882E+06 0.00184593
4.87990E+06 0.00183530
4.89101E+06 0.00182463
4.90493E+06 0.00181127
4.91613E+06 0.00180052
4.94709E+06 0.00177079
4.96411E+06 0.00175445
4.99839E+06 0.00172155
5.00000E+06 0.00172000
5.00000E+06 0.00172000
5.03016E+06 0.00170842
5.05051E+06 0.00170060
5.08869E+06 0.00168594
5.27984E+06 0.00161254
5.46288E+06 0.00154225
5.50000E+06 0.00152800
5.73543E+06 0.00143760
6.00000E+06 0.00133600
6.02896E+06 0.00132488
6.50000E+06 0.00114400
6.54425E+06 0.00112701
6.96001E+06 0.000967356
7.00000E+06 0.000952000
7.13290E+06 0.000900966
7.13292E+06 0.000900960
7.41645E+06 0.000792083
7.50000E+06 0.000760000
8.00000E+06 0.000652200
8.01201E+06 0.000649611
8.50000E+06 0.000544400
8.76247E+06 0.000487812
9.00000E+06 0.000436600
9.05800E+06 0.000424095
9.05804E+06 0.000424086
9.50000E+06 0.000328800
9.53232E+06 0.000321832
1.00000E+07 0.000221000
1.00047E+07 0.000221009
1.04740E+07 0.000221948
1.05000E+07 0.000222000
1.07706E+07 0.000222541
1.07710E+07 0.000222542
1.08013E+07 0.000222603
1.10000E+07 0.000223000
1.13190E+07 0.000223638
1.13194E+07 0.000223639
1.13334E+07 0.000223667
1.15000E+07 0.000224000
1.20000E+07 0.000225000
1.23434E+07 0.000227473
1.25000E+07 0.000228600
1.30000E+07 0.000232200
1.35000E+07 0.000235800
1.40000E+07 0.000239400
1.42435E+07 0.000241153
1.45000E+07 0.000243000
1.50000E+07 0.000234833
1.55000E+07 0.000226667
1.60000E+07 0.000218500
1.61422E+07 0.000216177
1.65000E+07 0.000210333
1.70000E+07 0.000202167
1.75000E+07 0.000194000
1.78885E+07 0.000181723
1.80000E+07 0.000178200
1.85000E+07 0.000162400
1.90000E+07 0.000146600
1.93940E+07 0.000134150
1.95000E+07 0.000130800
2.00000E+07 0.000115000
2.00000E+07 0.00000
2.10000E+07 0.00000
2.12648E+07 0.00000
2.20000E+07 0.00000
2.29622E+07 0.00000
2.30000E+07 0.00000
2.40000E+07 0.00000
2.47814E+07 0.00000
2.50000E+07 0.00000
2.51120E+07 0.00000
2.52180E+07 0.00000
2.60000E+07 0.00000
2.66612E+07 0.00000
2.68422E+07 0.00000
2.70000E+07 0.00000
2.74754E+07 0.00000
2.80000E+07 0.00000
2.90000E+07 0.00000
2.91684E+07 0.00000
3.00000E+07 0.00000
3.02915E+07 0.00000
3.04101E+07 0.00000
3.10000E+07 0.00000
3.14155E+07 0.00000
3.20000E+07 0.00000
3.28502E+07 0.00000
3.30000E+07 0.00000
3.30565E+07 0.00000
3.40000E+07 0.00000
3.40797E+07 0.00000
3.49056E+07 0.00000
3.50000E+07 0.00000
3.50465E+07 0.00000
3.60000E+07 0.00000
3.64925E+07 0.00000
3.69998E+07 0.00000
3.70000E+07 0.00000
3.72354E+07 0.00000
3.80000E+07 0.00000
3.90000E+07 0.00000
3.91226E+07 0.00000
3.94381E+07 0.00000
4.00000E+07 0.00000
4.03089E+07 0.00000
4.10000E+07 0.00000
4.20000E+07 0.00000
4.23547E+07 0.00000
4.30000E+07 0.00000
4.40000E+07 0.00000
4.50000E+07 0.00000
4.50844E+07 0.00000
4.53668E+07 0.00000
4.59419E+07 0.00000
4.60000E+07 0.00000
4.61370E+07 0.00000
4.63186E+07 0.00000
4.70000E+07 0.00000
4.80000E+07 0.00000
4.90000E+07 0.00000
5.00000E+07 0.00000
5.06842E+07 0.00000
5.10000E+07 0.00000
5.18561E+07 0.00000
5.20000E+07 0.00000
5.30000E+07 0.00000
5.40000E+07 0.00000
5.41708E+07 0.00000
5.44969E+07 0.00000
5.50000E+07 0.00000
5.56233E+07 0.00000
5.60000E+07 0.00000
5.61831E+07 0.00000
5.70000E+07 0.00000
5.80000E+07 0.00000
5.85703E+07 0.00000
5.90000E+07 0.00000
5.95384E+07 0.00000
6.00000E+07 0.00000
6.09318E+07 0.00000
6.10000E+07 0.00000
6.20000E+07 0.00000
6.30000E+07 0.00000
6.31931E+07 0.00000
6.40000E+07 0.00000
6.50000E+07 0.00000
6.50865E+07 0.00000
6.60000E+07 0.00000
6.70000E+07 0.00000
6.73643E+07 0.00000
6.77090E+07 0.00000
6.80000E+07 0.00000
6.90000E+07 0.00000
6.92772E+07 0.00000
7.00000E+07 0.00000
7.10000E+07 0.00000
7.20000E+07 0.00000
7.30000E+07 0.00000
7.40000E+07 0.00000
7.50000E+07 0.00000
7.60000E+07 0.00000
7.70000E+07 0.00000
7.80000E+07 0.00000
7.80781E+07 0.00000
7.90000E+07 0.00000
8.00000E+07 0.00000
8.10000E+07 0.00000
8.20000E+07 0.00000
8.30000E+07 0.00000
8.40000E+07 0.00000
8.50000E+07 0.00000
8.60000E+07 0.00000
8.70000E+07 0.00000
8.80000E+07 0.00000
8.90000E+07 0.00000
9.00000E+07 0.00000
9.10000E+07 0.00000
9.20000E+07 0.00000
9.30000E+07 0.00000
9.40000E+07 0.00000
9.50000E+07 0.00000
9.60000E+07 0.00000
9.70000E+07 0.00000
9.80000E+07 0.00000
9.90000E+07 0.00000
1.00000E+08 0.00000
1.02000E+08 0.00000
1.04000E+08 0.00000
1.06000E+08 0.00000
1.08000E+08 0.00000
1.10000E+08 0.00000
1.12000E+08 0.00000
1.14000E+08 0.00000
1.16000E+08 0.00000
1.18000E+08 0.00000
1.20000E+08 0.00000
1.22000E+08 0.00000
1.24000E+08 0.00000
1.26000E+08 0.00000
1.28000E+08 0.00000
1.30000E+08 0.00000
1.32000E+08 0.00000
1.34000E+08 0.00000
1.36000E+08 0.00000
1.38000E+08 0.00000
1.40000E+08 0.00000
1.42000E+08 0.00000
1.44000E+08 0.00000
1.46000E+08 0.00000
1.48000E+08 0.00000
1.50000E+08 0.00000