Mo-98(n,g) ENDF/B-VII.1
Energy(eV) XS(b)
1.00000E-05 6.53126
1.25000E-05 5.84173
1.50000E-05 5.33275
2.00000E-05 4.61830
2.75000E-05 3.93850
3.50000E-05 3.49111
4.25000E-05 3.16813
5.00000E-05 2.92087
6.25000E-05 2.61251
7.50000E-05 2.38488
0.000100000 2.06537
0.000125000 1.84733
0.000150000 1.68637
0.000200000 1.46044
0.000275000 1.24547
0.000350000 1.10400
0.000425000 1.00187
0.000500000 0.923676
0.000625000 0.826165
0.000750000 0.754186
0.00100000 0.653150
0.00125000 0.584201
0.00150000 0.533305
0.00200000 0.461864
0.00275000 0.393890
0.00350000 0.349157
0.00425000 0.316863
0.00500000 0.292142
0.00625000 0.261312
0.00750000 0.238556
0.0100000 0.206615
0.0125000 0.184819
0.0150000 0.168732
0.0200000 0.146154
0.0253000 0.129973
0.0314750 0.116556
0.0376500 0.106595
0.0500000 0.0925422
0.0625000 0.0828121
0.0750000 0.0756333
0.100000 0.0655640
0.125000 0.0586996
0.150000 0.0536379
0.200000 0.0465443
0.275000 0.0398139
0.350000 0.0354009
0.500000 0.0298088
0.750000 0.0246153
1.00000 0.0215776
1.50000 0.0181008
2.00000 0.0161733
2.75000 0.0145925
3.50000 0.0138797
5.00000 0.0141825
6.25000 0.0163675
7.50000 0.0218458
8.12500 0.0271503
8.75000 0.0360211
9.37500 0.0521123
9.68750 0.0654365
10.0000 0.0853259
10.2550 0.109766
10.5100 0.147113
10.7650 0.208178
11.0200 0.317934
11.1475 0.408858
11.2750 0.545216
11.4025 0.762889
11.5300 1.14139
11.6575 1.88658
11.7213 2.56300
11.7850 3.67266
11.8488 5.67145
11.8806 7.32462
11.9125 9.78631
11.9444 13.6504
11.9763 20.1000
12.0081 31.6141
12.0400 52.9322
12.0700 84.7935
12.1000 106.122
12.1300 85.0037
12.1600 53.1951
12.1906 32.4632
12.2213 20.9837
12.2519 14.4207
12.2825 10.4347
12.3131 7.86667
12.3438 6.12912
12.4050 4.00908
12.4663 2.82110
12.5275 2.09177
12.6500 1.28198
12.7725 0.866891
12.8950 0.626312
13.0175 0.474540
13.1400 0.372663
13.3850 0.248571
13.6300 0.178659
13.8750 0.135367
14.1200 0.106674
14.6100 0.0721295
15.1000 0.0528505
16.0800 0.0330883
17.0600 0.0235837
18.0400 0.0182344
20.0000 0.0126504
21.8750 0.00996371
23.7500 0.00836287
27.5000 0.00656648
35.0000 0.00496522
50.0000 0.00376776
75.0000 0.00305799
100.000 0.00278495
150.000 0.00271461
200.000 0.00305261
250.485 0.00392073
300.970 0.00591826
326.212 0.00792273
351.454 0.0115971
364.076 0.0147683
376.697 0.0199287
383.007 0.0240588
389.318 0.0307960
392.473 0.0367815
395.629 0.0490218
397.206 0.0631710
397.995 0.0763504
398.784 0.0995328
399.573 0.147606
399.967 0.194555
400.362 0.278820
400.559 0.348867
400.756 0.454543
400.953 0.624971
401.150 0.926394
401.249 1.17266
401.348 1.53750
401.446 2.11094
401.545 3.08735
401.643 4.95063
401.693 6.58813
401.742 9.18504
401.791 13.6375
401.841 22.1151
401.865 29.4571
401.890 40.6557
401.915 58.5013
401.939 86.9388
401.970 139.074
402.000 173.831
402.030 139.084
402.061 86.9517
402.088 56.2099
402.115 37.9164
402.142 26.8490
402.170 19.8420
402.224 11.9741
402.278 7.95940
402.333 5.66039
402.387 4.22880
402.496 2.62008
402.605 1.78549
402.713 1.29931
402.822 0.991304
402.931 0.784429
403.148 0.532262
403.366 0.390505
403.801 0.245529
404.236 0.177006
404.671 0.139620
405.541 0.103050
407.281 0.0800123
409.021 0.0762923
412.501 0.0866446
415.981 0.113919
419.462 0.172488
421.202 0.229502
422.942 0.331775
423.812 0.417167
424.682 0.546952
425.552 0.759003
426.422 1.14233
426.857 1.46307
427.292 1.94966
427.727 2.74038
428.162 4.15414
428.379 5.32177
428.597 7.06988
428.814 9.85727
429.032 14.7025
429.249 24.2527
429.358 32.9465
429.467 47.2407
429.576 73.1554
429.630 94.7219
429.684 126.987
429.739 178.161
429.793 264.753
429.848 422.347
429.902 721.324
429.951 1156.14
430.000 1446.78
430.049 1156.03
430.098 721.305
430.135 499.755
430.171 356.060
430.208 262.544
430.245 199.921
430.318 125.537
430.391 85.4799
430.464 61.7322
430.537 46.5875
430.684 29.1674
430.830 19.9453
430.977 14.4936
431.123 11.0095
431.269 8.65150
431.562 5.75439
431.855 4.11232
432.148 3.09323
432.440 2.41815
433.026 1.60768
433.612 1.15924
434.197 0.886026
434.783 0.708010
435.954 0.499471
437.125 0.388904
439.467 0.288688
441.809 0.257092
444.151 0.258109
448.836 0.328447
451.178 0.404770
453.520 0.527528
454.691 0.616321
455.277 0.670526
455.862 0.732948
456.448 0.805292
456.741 0.845829
457.033 0.889677
457.326 0.937232
457.619 0.988880
458.204 1.10652
458.790 1.24741
459.375 1.41797
459.961 1.62717
460.547 1.88745
461.132 2.21689
461.718 2.64211
462.303 3.20424
462.889 3.96848
463.474 5.04476
464.060 6.62779
464.645 9.09253
465.231 13.2308
465.524 16.4405
465.817 20.9618
466.109 27.6046
466.402 37.8904
466.695 54.9449
466.988 85.7740
467.134 111.044
467.280 147.813
467.427 202.493
467.573 283.618
467.787 453.323
468.000 566.073
468.214 452.398
468.428 282.467
468.675 161.990
468.921 100.150
469.168 66.7726
469.415 47.2932
469.661 35.0927
469.908 27.0091
470.401 17.3527
470.895 12.0544
471.388 8.84848
472.375 5.33870
473.361 3.56469
474.348 2.54688
475.334 1.90976
476.321 1.48485
478.294 0.971227
480.268 0.684560
482.241 0.508469
484.214 0.392635
488.161 0.254536
492.107 0.178489
496.054 0.132204
500.000 0.101961
507.056 0.0689684
514.112 0.0499662
521.168 0.0380773
528.224 0.0302029
542.336 0.0209900
556.448 0.0165978
570.560 0.0156262
577.616 0.0168411
584.672 0.0203277
591.728 0.0291956
595.256 0.0385763
598.784 0.0561413
600.548 0.0711636
602.312 0.0943304
604.076 0.132688
605.840 0.202949
606.722 0.262327
607.604 0.353203
608.486 0.502476
609.368 0.773330
609.809 1.00027
610.250 1.34481
610.691 1.90469
611.132 2.90501
611.352 3.73031
611.573 4.96441
611.793 6.92872
612.014 10.3342
612.234 17.0179
612.345 23.0740
612.455 32.9812
612.565 50.8060
612.620 65.5073
612.675 87.3694
612.730 121.606
612.785 178.625
612.841 280.052
612.896 467.169
612.948 748.177
613.000 935.776
613.052 748.144
613.104 467.173
613.155 292.221
613.205 192.418
613.255 133.827
613.305 97.6669
613.356 74.0325
613.406 57.9195
613.506 38.0583
613.607 26.8325
613.707 19.9035
613.908 12.1759
614.109 8.20170
614.310 5.89562
614.511 4.44073
614.712 3.46514
615.114 2.27813
615.516 1.61154
615.918 1.20035
616.320 0.929051
617.124 0.604474
617.928 0.425169
618.732 0.315761
619.536 0.244136
621.144 0.159123
622.752 0.112494
624.360 0.0841690
625.968 0.0656714
629.183 0.0437495
632.399 0.0317167
635.615 0.0243838
638.831 0.0195705
645.262 0.0138085
651.694 0.0105898
664.557 0.00724977
677.420 0.00561126
690.283 0.00469261
716.010 0.00388571
741.736 0.00403761
754.599 0.00462431
767.462 0.00594466
780.325 0.00905624
786.757 0.0122787
793.188 0.0182758
796.404 0.0233980
799.620 0.0313019
802.836 0.0444129
806.051 0.0685152
807.659 0.0889655
809.267 0.120392
810.875 0.172306
812.483 0.267291
813.287 0.347555
814.091 0.470412
814.895 0.672378
815.699 1.03925
816.101 1.34710
816.503 1.81515
816.905 2.57731
817.307 3.94273
817.508 5.07290
817.709 6.76806
817.910 9.47752
818.111 14.2003
818.312 23.5613
818.412 32.1262
818.513 46.3077
818.613 72.2306
818.663 94.0305
818.714 126.958
818.764 179.895
818.814 270.959
818.864 441.123
818.915 776.527
818.957 1243.81
819.000 1554.64
819.043 1242.59
819.086 776.512
819.130 470.272
819.174 302.163
819.218 206.743
819.262 149.162
819.306 112.114
819.351 87.1146
819.439 56.7425
819.527 39.7602
819.616 29.3740
819.792 17.8737
819.969 11.9963
820.146 8.60118
820.322 6.46595
820.499 5.03755
820.852 3.30354
821.206 2.33230
821.559 1.73397
821.912 1.33970
822.619 0.868653
823.326 0.608753
824.032 0.450352
824.739 0.346732
826.153 0.223889
827.566 0.156613
828.979 0.115814
830.393 0.0892182
833.220 0.0577950
836.046 0.0406382
838.873 0.0302511
841.700 0.0234857
847.354 0.0154932
853.007 0.0111241
858.661 0.00847223
864.314 0.00673884
875.621 0.00467729
886.929 0.00353700
909.543 0.00236995
932.157 0.00180556
954.771 0.00148796
1000.00 0.00118021
1030.98 0.00112343
1061.97 0.00125027
1077.46 0.00151573
1092.95 0.00233601
1100.70 0.00350686
1108.44 0.00686496
1112.32 0.0115596
1114.25 0.0162699
1116.19 0.0249054
1118.13 0.0434575
1119.10 0.0619765
1120.06 0.0957874
1120.55 0.124297
1121.03 0.167858
1121.52 0.239271
1122.00 0.368526
1122.24 0.476570
1122.48 0.640238
1122.73 0.905414
1122.97 1.37718
1123.09 1.76474
1123.21 2.34189
1123.33 3.25536
1123.45 4.82618
1123.57 7.87002
1123.63 10.6170
1123.69 14.9760
1123.75 22.7763
1123.81 37.9742
1123.85 52.1717
1123.88 74.2221
1123.91 111.124
1123.94 174.062
1123.97 279.706
1124.00 347.099
1124.03 276.306
1124.07 174.070
1124.09 119.455
1124.12 84.4235
1124.14 61.8586
1124.16 47.3689
1124.21 29.4810
1124.26 20.0964
1124.31 14.4349
1124.36 10.9065
1124.46 6.83672
1124.56 4.65964
1124.66 3.37596
1124.76 2.55707
1124.86 2.00793
1125.05 1.32681
1125.25 0.942911
1125.45 0.703425
1125.65 0.545509
1126.04 0.355246
1126.44 0.249697
1126.83 0.185132
1127.22 0.142873
1128.01 0.0924975
1128.80 0.0648719
1130.38 0.0371163
1131.96 0.0241546
1133.54 0.0170737
1136.70 0.00999648
1143.02 0.00490936
1149.33 0.00311979
1161.96 0.00183821
1174.60 0.00139272
1199.86 0.00109235
1225.13 0.00101967
1275.66 0.00109404
1326.19 0.00139436
1376.73 0.00212845
1401.99 0.00288433
1427.26 0.00427978
1439.89 0.00546389
1452.52 0.00728174
1465.16 0.0102801
1477.79 0.0157553
1484.11 0.0203745
1490.42 0.0274363
1496.74 0.0390305
1503.06 0.0600617
1506.21 0.0776950
1509.37 0.104476
1512.53 0.148045
1515.69 0.226043
1516.48 0.255280
1517.27 0.290539
1517.66 0.311004
1518.06 0.333713
1518.45 0.359005
1518.85 0.387210
1519.24 0.418962
1519.64 0.454786
1520.03 0.495408
1520.43 0.541598
1521.22 0.656009
1522.00 0.810608
1522.79 1.02721
1523.58 1.34290
1524.37 1.82966
1525.16 2.63354
1525.56 3.24830
1525.95 4.10220
1526.35 5.33397
1526.74 7.18973
1527.14 10.1669
1527.53 15.2842
1527.73 19.2845
1527.93 24.8155
1528.12 32.5935
1528.32 43.4666
1528.66 69.7891
1529.00 87.4242
1529.34 69.7501
1529.68 43.4291
1530.07 24.9882
1530.46 15.4899
1530.84 10.3470
1531.23 7.33754
1531.62 5.45023
1532.01 4.19767
1532.78 2.69976
1533.56 1.87678
1534.34 1.37832
1535.89 0.832118
1537.44 0.555803
1538.99 0.397151
1540.54 0.297796
1542.10 0.231547
1545.20 0.151386
1548.30 0.106646
1551.41 0.0791545
1554.51 0.0610768
1560.72 0.0395282
1566.92 0.0276704
1573.13 0.0204592
1579.34 0.0157510
1591.75 0.0101826
1604.17 0.00714283
1616.58 0.00530486
1628.99 0.00411027
1653.82 0.00270507
1678.65 0.00194370
1703.48 0.00148774
1728.31 0.00119598
1777.97 0.000870449
1827.62 0.000744183
1852.45 0.000761037
1877.28 0.000926099
1889.69 0.00119675
1902.11 0.00199831
1908.31 0.00312925
1914.52 0.00635812
1917.63 0.0108617
1920.73 0.0236287
1922.28 0.0413290
1923.06 0.0589701
1923.83 0.0911109
1924.61 0.159397
1925.00 0.226820
1925.38 0.348365
1925.58 0.449556
1925.77 0.602234
1925.97 0.848255
1926.16 1.28247
1926.26 1.63632
1926.35 2.15913
1926.45 2.97773
1926.55 4.36367
1926.65 6.98475
1926.69 9.29490
1926.74 12.8463
1926.79 18.9742
1926.84 30.1286
1926.86 39.4735
1926.89 53.3574
1926.91 74.5418
1926.94 106.898
1926.97 171.293
1927.00 212.183
1927.03 169.225
1927.07 105.281
1927.10 61.9482
1927.14 39.0108
1927.17 26.3348
1927.21 18.9761
1927.25 14.1541
1927.28 11.0091
1927.35 7.14073
1927.42 4.96906
1927.49 3.66646
1927.64 2.22756
1927.78 1.49025
1927.92 1.06846
1928.06 0.801734
1928.21 0.624712
1928.49 0.409342
1928.78 0.288848
1929.35 0.165884
1929.92 0.107602
1930.49 0.0754717
1931.63 0.0431233
1933.90 0.0196571
1936.18 0.0113478
1940.74 0.00536678
1945.30 0.00326220
1963.53 0.00123486
1981.77 0.000892821
2000.00 0.000879624
2012.97 0.00129834
2019.45 0.00304634
2022.70 0.00989253
2024.32 0.0360802
2024.72 0.0620917
2025.13 0.132016
2025.33 0.223039
2025.53 0.453033
2025.64 0.733281
2025.74 1.36693
2025.79 2.04353
2025.84 3.31008
2025.86 4.45616
2025.89 6.15789
2025.91 8.86310
2025.94 13.3595
2025.97 21.2824
2026.00 26.7298
2026.03 21.2827
2026.06 13.3599
2026.08 9.72948
2026.10 7.29707
2026.14 4.40271
2026.18 2.89039
2026.21 2.02614
2026.29 1.14309
2026.37 0.729523
2026.52 0.369609
2026.67 0.222455
2026.98 0.105892
2027.28 0.0619416
2027.89 0.0288529
2028.50 0.0168251
2030.93 0.00485400
2035.80 0.00177883
2045.54 0.00102548
2065.01 0.000933521
2103.96 0.00146104
2123.43 0.00228898
2142.90 0.00467518
2152.64 0.00801184
2157.51 0.0113592
2162.38 0.0174993
2167.25 0.0306924
2169.68 0.0438735
2172.12 0.0679572
2173.33 0.0882809
2174.55 0.119358
2175.77 0.170359
2176.98 0.262812
2177.59 0.340291
2178.20 0.457643
2178.81 0.648505
2179.42 0.988534
2179.72 1.26974
2180.03 1.68854
2180.33 2.35397
2180.63 3.50468
2180.94 5.76488
2181.09 7.79959
2181.24 11.1181
2181.40 17.0478
2181.47 21.9129
2181.55 29.1056
2181.62 40.2807
2181.70 58.6864
2181.78 90.9145
2181.85 149.151
2181.93 239.368
2182.00 298.470
2182.08 238.071
2182.15 149.144
2182.22 94.3671
2182.29 62.9637
2182.36 44.2365
2182.43 32.5017
2182.56 19.4531
2182.70 12.8542
2182.84 9.09613
2182.98 6.76462
2183.25 4.15186
2183.53 2.80214
2183.81 2.01670
2184.08 1.52019
2184.36 1.18664
2184.91 0.779914
2185.46 0.551703
2186.02 0.410778
2186.57 0.317709
2187.67 0.206246
2188.78 0.144700
2189.88 0.107113
2190.99 0.0825281
2193.19 0.0533456
2195.40 0.0373540
2199.82 0.0213294
2204.24 0.0138594
2208.66 0.00978400
2217.49 0.00571867
2235.16 0.00281303
2252.83 0.00181013
2270.51 0.00136619
2288.18 0.00114994
2323.52 0.00102446
2358.86 0.00115664
2376.53 0.00134208
2394.20 0.00167900
2411.87 0.00235039
2420.71 0.00297675
2429.55 0.00406577
2438.38 0.00629504
2447.22 0.0123738
2451.63 0.0206675
2453.84 0.0289062
2456.05 0.0439248
2458.26 0.0759642
2459.37 0.107809
2460.47 0.165603
2461.02 0.214198
2461.58 0.287991
2462.13 0.408204
2462.68 0.623805
2462.96 0.802383
2463.23 1.07047
2463.51 1.49950
2463.78 2.24917
2464.06 3.73901
2464.20 5.10654
2464.34 7.37882
2464.47 11.5546
2464.54 15.0813
2464.61 20.4487
2464.68 29.1263
2464.75 44.2497
2464.82 72.9901
2464.85 97.3630
2464.89 130.926
2464.94 209.695
2465.00 260.767
2465.06 208.221
2465.11 129.776
2465.16 89.4761
2465.20 63.5004
2465.24 46.6836
2465.29 35.6830
2465.37 22.3098
2465.46 15.2086
2465.54 10.9526
2465.63 8.27286
2465.80 5.18380
2465.97 3.53766
2466.14 2.56561
2466.31 1.94487
2466.48 1.52680
2466.82 1.01036
2467.16 0.718511
2467.51 0.536789
2467.85 0.416679
2468.53 0.272128
2469.21 0.191934
2470.58 0.110764
2471.94 0.0725515
2473.31 0.0516135
2476.04 0.0307024
2481.50 0.0159053
2486.97 0.0110793
2492.43 0.00928650
2497.89 0.00885242
2508.82 0.0104847
2514.28 0.0126419
2519.74 0.0162415
2525.21 0.0223952
2530.67 0.0337887
2533.40 0.0434258
2536.13 0.0581353
2538.87 0.0821980
2541.60 0.125526
2542.96 0.161568
2544.33 0.215885
2545.69 0.303268
2546.38 0.368423
2547.06 0.456974
2547.40 0.513923
2547.74 0.582001
2548.08 0.664816
2548.43 0.766290
2548.77 0.893256
2549.11 1.05395
2549.45 1.26201
2549.79 1.53790
2550.13 1.91563
2550.47 2.44793
2550.82 3.23579
2551.16 4.45989
2551.50 6.51243
2551.67 8.08861
2551.84 10.2605
2552.01 13.3800
2552.18 17.9443
2552.35 24.8712
2552.52 35.2630
2552.76 56.4636
2553.00 70.5122
2553.24 56.3563
2553.48 35.2503
2553.73 21.3403
2553.98 13.7070
2554.22 9.37595
2554.47 6.75856
2554.72 5.07953
2554.97 3.94666
2555.46 2.57139
2555.96 1.80168
2556.45 1.33060
2557.45 0.809738
2558.44 0.543527
2559.43 0.389939
2560.42 0.293340
2561.41 0.228692
2563.39 0.150248
2565.38 0.106331
2567.36 0.0793104
2569.34 0.0615317
2573.31 0.0403478
2577.27 0.0287577
2581.24 0.0218126
2585.20 0.0174342
2593.13 0.0130209
2597.10 0.0124462
2601.07 0.0132479
2605.03 0.0167880
2609.00 0.0289391
2610.98 0.0465953
2611.97 0.0644103
2612.96 0.0970167
2613.95 0.166692
2614.45 0.235745
2614.95 0.360319
2615.19 0.464499
2615.44 0.622146
2615.69 0.877171
2615.94 1.32735
2616.06 1.69724
2616.18 2.24654
2616.31 3.11269
2616.43 4.59405
2616.56 7.44025
2616.62 9.95965
2616.68 13.9855
2616.74 20.9640
2616.80 34.4805
2616.84 46.3674
2616.87 64.8992
2616.90 94.9943
2616.93 143.863
2616.96 230.474
2617.00 287.543
2617.04 230.474
2617.07 143.666
2617.11 83.5996
2617.15 51.9896
2617.20 34.7944
2617.24 24.7047
2617.28 18.3663
2617.32 14.1547
2617.40 9.15703
2617.48 6.36557
2617.56 4.69181
2617.73 2.83946
2617.89 1.90038
2618.05 1.36040
2618.21 1.02186
2618.38 0.795806
2618.70 0.522198
2619.03 0.369255
2619.68 0.213279
2620.33 0.139373
2620.99 0.0986194
2622.29 0.0575219
2624.90 0.0276028
2627.51 0.0168826
2632.72 0.00895210
2637.94 0.00598397
2643.15 0.00449203
2648.37 0.00360382
2658.80 0.00259350
2679.67 0.00166701
2700.53 0.00122839
2742.26 0.000817526
2783.99 0.000645300
2825.72 0.000588405
2867.45 0.000659221
2909.18 0.00130304
2930.05 0.00395823
2935.26 0.00670254
2940.48 0.0144950
2943.09 0.0253152
2945.70 0.0558307
2947.00 0.0978387
2947.65 0.139450
2948.30 0.214740
2948.96 0.372932
2949.28 0.527238
2949.61 0.801598
2949.77 1.02687
2949.93 1.36214
2950.10 1.89240
2950.26 2.80330
2950.42 4.56552
2950.50 6.14896
2950.59 8.66791
2950.67 13.1435
2950.75 21.8656
2950.79 29.7837
2950.83 42.4261
2950.87 63.6186
2950.91 98.7920
2950.96 158.719
2951.00 197.609
2951.04 158.718
2951.09 98.7920
2951.13 64.9751
2951.17 44.0357
2951.21 31.2742
2951.24 23.1537
2951.32 13.9934
2951.40 9.34462
2951.48 6.63278
2951.55 4.96038
2951.71 3.05873
2951.87 2.06563
2952.02 1.49007
2952.18 1.12510
2952.33 0.879350
2952.64 0.578684
2952.95 0.409891
2953.57 0.236263
2954.19 0.153526
2954.81 0.107764
2956.06 0.0615548
2958.54 0.0279298
2961.02 0.0159950
2965.99 0.00739303
2970.95 0.00436209
2990.82 0.00143377
3010.68 0.000907074
3030.55 0.000744707
3070.28 0.000702112
3110.00 0.000827329
3149.73 0.00114655
3169.60 0.00144444
3189.46 0.00193024
3209.32 0.00279640
3219.26 0.00351319
3229.19 0.00460094
3239.12 0.00641363
3249.05 0.0100363
3254.02 0.0137858
3256.50 0.0169779
3258.98 0.0222107
3261.47 0.0323751
3263.95 0.0589012
3265.19 0.0941719
3265.81 0.128711
3266.43 0.190725
3267.05 0.320700
3267.37 0.447571
3267.68 0.672361
3267.99 1.13346
3268.14 1.56878
3268.30 2.31689
3268.45 3.76528
3268.53 5.06838
3268.61 7.14209
3268.68 10.8345
3268.76 18.0435
3268.80 24.6094
3268.84 35.1252
3268.88 52.8281
3268.92 82.5253
3268.96 131.848
3269.00 165.048
3269.04 131.848
3269.08 82.5258
3269.12 57.1601
3269.15 40.8352
3269.18 29.8970
3269.21 22.8250
3269.27 14.2918
3269.34 9.71394
3269.40 7.00727
3269.46 5.28452
3269.59 3.31788
3269.71 2.26820
3269.84 1.65285
3270.09 0.990195
3270.34 0.660963
3270.59 0.475394
3271.09 0.284062
3271.60 0.192616
3272.10 0.142321
3273.10 0.0921560
3275.11 0.0580156
3277.12 0.0490896
3281.14 0.0525961
3285.16 0.0728776
3287.17 0.0916111
3289.17 0.120505
3291.18 0.167411
3292.19 0.202468
3293.19 0.250113
3293.70 0.280691
3294.20 0.317236
3294.70 0.361481
3295.20 0.415736
3295.70 0.483389
3296.21 0.568833
3296.71 0.679067
3297.21 0.824586
3297.71 1.02248
3298.22 1.29955
3298.72 1.70427
3299.22 2.32628
3299.72 3.34847
3299.97 4.11693
3300.22 5.16410
3300.48 6.62761
3300.73 8.72447
3300.98 11.7846
3301.23 16.2351
3301.61 25.9631
3302.00 32.4404
3302.39 25.9285
3302.77 16.2066
3303.02 11.8519
3303.26 8.83022
3303.75 5.27941
3304.24 3.44220
3304.73 2.40318
3305.22 1.76451
3305.71 1.34821
3306.69 0.857897
3307.67 0.592213
3308.65 0.432901
3310.60 0.259970
3312.56 0.173149
3314.52 0.123571
3316.48 0.0926177
3318.43 0.0720098
3322.35 0.0471325
3326.26 0.0332631
3330.18 0.0247473
3334.09 0.0191464
3341.92 0.0124645
3349.75 0.00878216
3357.58 0.00653840
3365.41 0.00507091
3381.07 0.00333112
3396.73 0.00237883
3412.39 0.00180232
3428.04 0.00142789
3459.36 0.000990125
3490.68 0.000758633
3553.31 0.000556783
3615.95 0.000534051
3647.27 0.000588742
3678.58 0.000724840
3709.90 0.00105052
3725.56 0.00138694
3741.22 0.00201058
3756.88 0.00336023
3772.54 0.00720739
3780.37 0.0125713
3784.28 0.0179450
3788.20 0.0277898
3792.11 0.0489083
3794.07 0.0699700
3796.03 0.108379
3797.00 0.140751
3797.98 0.190173
3798.96 0.271106
3799.94 0.417157
3800.43 0.539274
3800.92 0.723572
3801.41 1.02134
3801.90 1.54894
3802.14 1.98168
3802.39 2.62413
3802.63 3.63670
3802.88 5.35802
3803.12 8.66990
3803.24 11.5815
3803.37 16.2146
3803.49 24.2854
3803.61 39.6978
3803.67 53.1385
3803.73 73.9186
3803.79 107.305
3803.85 161.521
3803.93 258.477
3804.00 323.126
3804.07 258.467
3804.15 161.515
3804.20 112.290
3804.25 80.6902
3804.31 59.5744
3804.36 45.6190
3804.47 28.7571
3804.57 19.6259
3804.68 14.1930
3804.79 10.7197
3805.00 6.72822
3805.22 4.59782
3805.43 3.34179
3805.64 2.53402
3805.86 1.98899
3806.28 1.31606
3806.71 0.935247
3807.14 0.698596
3807.56 0.541588
3808.42 0.352637
3809.27 0.247860
3810.13 0.183655
3810.98 0.141579
3812.69 0.0915152
3814.40 0.0640214
3817.82 0.0364245
3821.24 0.0235333
3824.65 0.0164945
3831.49 0.00946252
3845.16 0.00442210
3858.83 0.00266626
3886.17 0.00146278
3913.51 0.00115164
3968.19 0.00198938
3981.86 0.00315299
3995.53 0.00654603
4002.37 0.0113069
4009.20 0.0248415
4012.62 0.0436369
4014.33 0.0623929
4016.04 0.0965827
4017.75 0.169396
4018.60 0.241498
4019.46 0.371641
4019.89 0.480533
4020.31 0.644889
4020.74 0.910563
4021.17 1.38163
4021.38 1.76841
4021.59 2.33980
4021.81 3.24452
4022.02 4.78306
4022.23 7.74979
4022.34 10.3761
4022.45 14.5231
4022.55 21.7585
4022.66 35.7563
4022.72 48.1941
4022.77 67.2036
4022.82 97.9021
4022.87 149.178
4022.94 238.015
4023.00 298.391
4023.06 238.013
4023.13 149.178
4023.18 95.7294
4023.24 64.5841
4023.30 45.4738
4023.35 33.6262
4023.46 20.2172
4023.58 13.3949
4023.69 9.49521
4023.80 7.06991
4024.03 4.34591
4024.26 2.93583
4024.48 2.11420
4024.71 1.59435
4024.93 1.24490
4025.39 0.819085
4025.84 0.579474
4026.29 0.431469
4026.74 0.333886
4027.64 0.216774
4028.55 0.152089
4030.35 0.0867083
4032.16 0.0560084
4033.97 0.0391813
4037.58 0.0223150
4044.81 0.0101544
4052.04 0.00586485
4066.50 0.00278025
4080.95 0.00169225
4138.78 0.000635200
4167.69 0.000513080
4196.61 0.000454781
4254.44 0.000431676
4312.26 0.000505124
4341.18 0.000597712
4370.09 0.000769691
4399.00 0.00112787
4413.46 0.00147405
4427.92 0.00209065
4435.15 0.00260266
4442.37 0.00337829
4449.60 0.00464370
4456.83 0.00693501
4460.45 0.00886129
4464.06 0.0118026
4467.67 0.0166331
4471.29 0.0254204
4473.10 0.0328131
4474.90 0.0440913
4476.71 0.0625531
4478.52 0.0959131
4479.42 0.123780
4480.32 0.165896
4481.23 0.234110
4482.13 0.355083
4483.03 0.601986
4483.49 0.835094
4483.71 1.00586
4483.94 1.23349
4484.16 1.54924
4484.39 2.00262
4484.50 2.30708
4484.62 2.68577
4484.73 3.16455
4484.84 3.78137
4484.95 4.59358
4485.07 5.69075
4485.18 7.21801
4485.29 9.42050
4485.41 12.7303
4485.52 17.9383
4485.63 26.5013
4485.74 40.6309
4485.87 65.0075
4486.00 81.2565
4486.13 65.0032
4486.26 40.6266
4486.35 28.6376
4486.44 20.7600
4486.53 15.4655
4486.62 11.9008
4486.80 7.56504
4486.98 5.19091
4487.16 3.76795
4487.34 2.85357
4487.70 1.79621
4488.07 1.23062
4488.43 0.894880
4488.79 0.679693
4489.15 0.534000
4489.87 0.354177
4490.60 0.252145
4491.32 0.188612
4492.04 0.146507
4493.49 0.0958285
4494.94 0.0676898
4496.39 0.0504754
4497.83 0.0391975
4500.73 0.0258090
4503.62 0.0185007
4506.51 0.0141027
4509.41 0.0112788
4515.19 0.00807178
4520.98 0.00651939
4532.55 0.00572974
4538.34 0.00615173
4544.13 0.00722090
4549.91 0.00932446
4555.70 0.0134750
4561.49 0.0226776
4564.38 0.0319754
4567.28 0.0490373
4570.17 0.0856021
4571.62 0.121987
4573.06 0.188062
4573.79 0.243593
4574.51 0.327928
4575.23 0.465503
4575.96 0.711839
4576.32 0.916083
4576.68 1.22270
4577.04 1.71337
4577.40 2.56749
4577.77 4.26723
4577.95 5.82625
4578.13 8.39580
4578.31 13.1279
4578.40 17.1426
4578.49 23.1712
4578.58 32.9987
4578.67 49.8538
4578.76 81.5296
4578.85 144.409
4578.93 231.231
4579.00 287.917
4579.08 230.009
4579.15 143.456
4579.22 92.0238
4579.29 62.0487
4579.36 43.9257
4579.43 32.4520
4579.56 19.5651
4579.70 12.9861
4579.83 9.21692
4579.97 6.86898
4580.24 4.22771
4580.51 2.85463
4580.79 2.05738
4581.06 1.55247
4581.33 1.21282
4581.88 0.798064
4582.42 0.565037
4582.96 0.421001
4583.51 0.325812
4584.60 0.211728
4585.68 0.148690
4587.86 0.0849648
4590.04 0.0550204
4592.22 0.0386089
4596.57 0.0221443
4605.28 0.0102461
4613.99 0.00603005
4631.41 0.00298013
4648.82 0.00190144
4666.24 0.00140843
4683.66 0.00115750
4718.49 0.000991003
4753.33 0.00113316
4788.16 0.00186356
4805.58 0.00296475
4823.00 0.00615118
4831.71 0.0106112
4836.06 0.0150836
4840.42 0.0232801
4844.77 0.0408640
4846.95 0.0584001
4849.13 0.0903765
4850.22 0.117321
4851.30 0.158403
4852.39 0.225707
4853.48 0.347124
4854.03 0.448578
4854.57 0.601654
4855.11 0.848839
4855.66 1.28646
4855.93 1.64580
4856.20 2.17683
4856.47 3.01207
4856.75 4.43548
4857.02 7.15521
4857.15 9.54853
4857.29 13.3493
4857.43 19.8788
4857.56 32.3500
4857.63 43.1591
4857.70 59.7678
4857.77 86.2376
4857.83 128.809
4857.92 206.122
4858.00 257.670
4858.08 206.115
4858.17 128.806
4858.24 85.2627
4858.31 58.8655
4858.38 42.2043
4858.44 31.5896
4858.58 19.3171
4858.72 12.9669
4858.86 9.25264
4859.00 6.93500
4859.28 4.29402
4859.55 2.91400
4859.83 2.10502
4860.11 1.59102
4860.38 1.24443
4860.94 0.820761
4861.49 0.581609
4862.05 0.433570
4862.60 0.335632
4863.71 0.218207
4864.82 0.153184
4865.92 0.113458
4867.03 0.0874256
4869.25 0.0565035
4871.46 0.0395526
4875.90 0.0225520
4880.33 0.0146188
4884.76 0.0102889
4893.63 0.00596389
4911.35 0.00285957
4929.08 0.00177169
5000.00 0.000760386
5035.21 0.000680473
5070.42 0.000685056
5105.63 0.000764073
5140.84 0.000953065
5176.05 0.00138572
5193.65 0.00182212
5211.25 0.00262052
5228.86 0.00433027
5237.66 0.00603713
5246.46 0.00915897
5250.86 0.0117985
5255.27 0.0158443
5259.67 0.0225085
5264.07 0.0346585
5266.27 0.0448942
5268.47 0.0605090
5270.67 0.0860842
5272.87 0.132260
5273.97 0.170819
5275.07 0.229070
5276.17 0.323188
5277.27 0.489963
5277.82 0.626722
5278.37 0.829293
5278.92 1.14824
5279.47 1.69259
5280.02 2.73508
5280.30 3.65470
5280.57 5.11887
5280.85 7.64361
5281.12 12.4938
5281.26 16.7418
5281.40 23.2604
5281.53 33.8091
5281.67 50.8028
5281.84 81.3347
5282.00 101.500
5282.17 81.1293
5282.33 50.6435
5282.48 32.9498
5282.62 22.3919
5282.76 15.9400
5282.91 11.8235
5283.20 7.15435
5283.48 4.76494
5283.77 3.38601
5284.06 2.52795
5284.64 1.55961
5285.21 1.05542
5285.79 0.761408
5286.37 0.574722
5286.94 0.449284
5288.10 0.296068
5289.25 0.209737
5290.40 0.156363
5291.56 0.121085
5293.86 0.0788271
5296.17 0.0554497
5298.47 0.0411778
5300.78 0.0318316
5305.39 0.0207429
5310.00 0.0146694
5314.62 0.0109897
5319.23 0.00859599
5328.45 0.00578302
5337.68 0.00426847
5356.12 0.00282152
5374.57 0.00227403
5393.02 0.00226388
5411.47 0.00371976
5420.69 0.00995810
5425.30 0.0344503
5426.46 0.0592975
5427.61 0.128291
5428.19 0.221513
5428.76 0.472604
5429.05 0.800563
5429.20 1.10857
5429.34 1.63480
5429.48 2.64424
5429.56 3.53628
5429.63 4.95924
5429.70 7.41989
5429.77 12.1685
5429.81 16.3296
5429.84 22.7946
5429.88 33.2517
5429.92 50.5563
5429.96 81.1586
5430.00 101.115
5430.04 81.1583
5430.08 50.5564
5430.13 30.7919
5430.17 19.7348
5430.22 13.4765
5430.26 9.77005
5430.30 7.32971
5430.35 5.68700
5430.43 3.71134
5430.52 2.59538
5430.61 1.92031
5430.78 1.17109
5430.96 0.785875
5431.13 0.563566
5431.48 0.330828
5432.18 0.153897
5432.88 0.0890096
5434.28 0.0412512
5435.68 0.0241522
5441.27 0.00737063
5452.45 0.00317366
5463.63 0.00249549
5474.81 0.00238346
5497.17 0.00272069
5519.54 0.00366060
5541.90 0.00575570
5553.08 0.00781134
5564.26 0.0114759
5569.85 0.0145039
5575.44 0.0190566
5581.03 0.0263918
5586.62 0.0394148
5589.42 0.0501450
5592.21 0.0662059
5595.01 0.0918811
5597.80 0.136809
5599.20 0.173190
5600.60 0.226648
5601.30 0.263329
5602.00 0.309803
5602.70 0.369880
5603.40 0.449265
5604.09 0.557479
5604.79 0.709941
5605.49 0.934026
5606.19 1.28075
5606.54 1.53026
5606.89 1.85668
5607.24 2.29616
5607.59 2.89980
5607.94 3.75742
5608.29 5.00357
5608.64 6.85921
5608.99 9.61898
5609.49 15.3870
5610.00 19.2187
5610.51 15.3717
5611.02 9.60676
5611.33 7.10829
5611.64 5.35449
5612.25 3.24855
5612.87 2.14106
5613.49 1.50659
5614.11 1.11349
5614.73 0.855662
5615.97 0.550274
5617.20 0.384286
5618.44 0.284812
5620.91 0.177377
5623.39 0.124668
5625.86 0.0961910
5628.34 0.0805329
5630.81 0.0730029
5635.76 0.0775278
5638.24 0.0926391
5640.71 0.125053
5641.95 0.153689
5643.19 0.197888
5644.42 0.270210
5645.66 0.399173
5646.28 0.504960
5646.90 0.661547
5647.52 0.908032
5648.13 1.32647
5648.75 2.12396
5649.06 2.82132
5649.37 3.92260
5649.68 5.80710
5649.99 9.35358
5650.14 12.3997
5650.30 16.9901
5650.45 24.2318
5650.61 35.5739
5650.80 56.9431
5651.00 71.0788
5651.20 56.8215
5651.39 35.4796
5651.53 25.1862
5651.67 18.3456
5651.80 13.7613
5651.94 10.6184
5652.21 6.78233
5652.48 4.67577
5652.76 3.40267
5653.03 2.58502
5653.57 1.63255
5654.12 1.12326
5654.66 0.820187
5655.75 0.493466
5656.84 0.330247
5657.93 0.237256
5659.02 0.179268
5660.11 0.140686
5662.29 0.0939859
5664.47 0.0678295
5666.65 0.0516515
5668.83 0.0409127
5673.19 0.0279088
5677.55 0.0205686
5686.26 0.0128931
5694.98 0.00909609
5703.70 0.00691240
5721.13 0.00460504
5738.57 0.00348794
5756.00 0.00290080
5790.87 0.00252201
5825.74 0.00294128
5843.17 0.00360708
5860.61 0.00494184
5869.33 0.00610500
5878.04 0.00790735
5886.76 0.0108948
5895.48 0.0163593
5899.84 0.0209675
5904.19 0.0280022
5908.55 0.0395237
5912.91 0.0603318
5915.09 0.0776989
5917.27 0.103944
5919.45 0.146346
5921.63 0.221474
5922.72 0.282973
5923.81 0.374203
5924.90 0.517843
5925.99 0.762687
5927.08 1.23182
5927.62 1.64555
5928.17 2.30255
5928.71 3.43640
5929.26 5.61254
5929.53 7.51242
5929.80 10.4354
5930.07 15.1198
5930.35 22.7034
5930.67 36.3498
5931.00 45.4076
5931.33 36.2990
5931.66 22.6647
5931.90 15.8345
5932.13 11.3725
5932.37 8.42723
5932.61 6.44789
5933.09 4.07193
5933.56 2.78446
5934.04 2.01530
5934.52 1.52395
5935.47 0.955964
5936.42 0.653995
5937.38 0.475312
5938.33 0.360931
5939.28 0.283377
5941.19 0.188004
5943.10 0.133903
5945.00 0.100270
5946.91 0.0779713
5950.72 0.0511577
5954.53 0.0362746
5958.35 0.0271708
5962.16 0.0212045
5969.79 0.0141251
5977.41 0.0102601
5992.66 0.00644686
6007.91 0.00476538
6023.17 0.00397070
6053.67 0.00365784
6084.17 0.00467992
6099.42 0.00600522
6114.67 0.00852947
6122.30 0.0106619
6129.93 0.0138836
6137.55 0.0190512
6141.37 0.0228837
6145.18 0.0280690
6147.08 0.0313778
6148.99 0.0353249
6150.90 0.0400896
6152.80 0.0459061
6154.71 0.0531140
6155.66 0.0573776
6156.62 0.0621809
6158.52 0.0738122
6160.43 0.0890446
6162.34 0.109534
6164.24 0.137928
6166.15 0.178817
6168.06 0.240400
6169.96 0.338677
6171.87 0.506603
6172.82 0.636787
6173.77 0.816816
6174.73 1.06869
6175.68 1.41864
6177.34 2.26756
6179.00 2.83253
6180.66 2.26680
6182.32 1.41885
6184.14 0.837164
6185.97 0.530084
6187.79 0.362185
6189.62 0.265778
6191.44 0.211809
6193.26 0.197144
6194.18 0.219341
6194.63 0.250008
6195.09 0.311321
6195.54 0.446215
6196.00 0.814263
6196.23 1.28668
6196.34 1.72374
6196.46 2.45501
6196.57 3.81186
6196.63 4.96892
6196.68 6.74698
6196.74 9.66074
6196.80 14.8409
6196.86 24.9906
6196.88 33.8939
6196.91 46.4933
6196.96 74.2664
6197.00 92.8950
6197.04 74.2652
6197.09 46.4916
6197.12 33.1605
6197.15 24.2490
6197.18 18.2513
6197.21 14.1255
6197.27 9.08538
6197.33 6.29506
6197.39 4.58807
6197.45 3.50696
6197.57 2.24630
6197.69 1.56567
6197.81 1.16367
6198.05 0.728275
6198.53 0.384170
6199.01 0.252676
6199.98 0.150412
6200.94 0.109979
6202.86 0.0750285
6204.79 0.0584069
6208.64 0.0408131
6212.49 0.0309793
6220.19 0.0200394
6227.89 0.0141719
6235.59 0.0106092
6243.29 0.00827372
6258.68 0.00548820
6274.08 0.00394867
6289.48 0.00300698
6320.28 0.00195994
6351.08 0.00142083
6381.88 0.00110837
6443.47 0.000787954
6505.07 0.000660541
6566.67 0.000667451
6597.46 0.000758780
6628.26 0.00104657
6659.06 0.00254528
6674.46 0.00832807
6678.31 0.0142313
6682.16 0.0308401
6684.08 0.0536623
6686.01 0.117034
6686.97 0.202630
6687.45 0.285855
6687.93 0.433414
6688.42 0.733530
6688.66 1.01679
6688.90 1.49869
6689.14 2.42725
6689.26 3.24475
6689.38 4.54767
6689.50 6.82313
6689.62 11.1846
6689.68 15.0036
6689.74 20.9330
6689.80 30.5145
6689.86 46.3522
6689.93 74.0634
6690.00 92.7134
6690.07 74.0618
6690.14 46.3513
6690.21 28.7569
6690.28 18.7512
6690.35 12.9593
6690.42 9.44960
6690.49 7.13572
6690.56 5.56382
6690.70 3.64976
6690.84 2.56446
6690.98 1.90140
6691.26 1.16253
6691.54 0.781826
6691.81 0.561999
6692.37 0.330021
6692.93 0.216894
6693.48 0.153414
6694.60 0.0884673
6696.83 0.0405827
6699.05 0.0234110
6703.51 0.0109664
6707.97 0.00657699
6716.88 0.00346725
6725.79 0.00243932
6743.61 0.00191583
6761.44 0.00215466
6779.26 0.00315259
6788.18 0.00424593
6797.09 0.00629622
6806.00 0.0107438
6810.46 0.0152025
6814.91 0.0233597
6817.14 0.0302480
6819.37 0.0407849
6821.60 0.0580848
6823.82 0.0894606
6824.94 0.115741
6826.05 0.155628
6827.17 0.220429
6828.28 0.336168
6828.84 0.431629
6829.39 0.574341
6829.95 0.801427
6830.51 1.19496
6831.06 1.96685
6831.34 2.66700
6831.62 3.80857
6831.90 5.86638
6832.04 7.55786
6832.18 10.0697
6832.32 14.0318
6832.46 20.5800
6832.60 32.1948
6832.74 53.5412
6832.87 85.8676
6833.00 107.230
6833.13 85.6032
6833.27 53.5380
6833.40 32.5306
6833.54 20.9521
6833.67 14.3594
6833.81 10.3882
6833.94 7.81316
6834.08 6.08452
6834.35 3.96844
6834.62 2.78087
6834.89 2.05597
6835.44 1.25228
6835.98 0.840659
6836.52 0.603189
6837.06 0.453714
6837.60 0.353612
6838.69 0.232015
6839.77 0.163928
6840.86 0.121946
6841.94 0.0942956
6844.11 0.0612326
6846.28 0.0429988
6848.45 0.0318849
6850.62 0.0246142
6854.96 0.0159929
6859.30 0.0112726
6867.97 0.00654376
6876.65 0.00433882
6885.33 0.00313537
6902.68 0.00193411
6937.39 0.00107760
6972.09 0.000791613
7006.80 0.000686637
7041.51 0.000690712
7076.21 0.000958434
7093.57 0.00200075
7102.25 0.00601915
7106.58 0.0216650
7108.75 0.0815850
7109.30 0.141183
7109.84 0.301905
7110.11 0.511115
7110.38 1.04532
7110.52 1.69637
7110.65 3.18247
7110.72 4.77904
7110.79 7.88322
7110.82 10.6243
7110.85 14.9158
7110.89 21.9248
7110.92 33.4419
7110.96 53.5415
7111.00 66.8418
7111.04 53.5414
7111.08 33.3993
7111.12 19.9423
7111.16 12.7726
7111.20 8.64733
7111.24 6.23387
7111.33 3.62086
7111.41 2.34982
7111.58 1.21195
7111.74 0.737888
7112.07 0.354993
7112.40 0.208016
7113.07 0.0964906
7113.73 0.0556947
7116.38 0.0149103
7121.68 0.00438346
7132.27 0.00180074
7153.47 0.00161041
7174.67 0.00405375
7179.97 0.00666988
7185.26 0.0140911
7187.91 0.0243572
7190.56 0.0530984
7191.89 0.0923233
7192.55 0.130908
7193.21 0.199989
7193.88 0.343286
7194.21 0.480678
7194.54 0.720541
7194.87 1.19656
7195.04 1.63450
7195.20 2.35661
7195.37 3.68907
7195.45 4.81378
7195.53 6.49880
7195.61 9.24453
7195.70 14.0171
7195.78 23.0504
7195.86 40.9458
7195.93 65.4599
7196.00 81.8987
7196.07 65.4585
7196.14 40.9450
7196.22 23.8194
7196.29 14.8975
7196.37 9.96221
7196.45 7.09768
7196.53 5.27117
7196.60 4.07188
7196.76 2.63002
7196.91 1.82969
7197.07 1.34457
7197.38 0.813742
7197.69 0.543891
7197.99 0.389310
7198.61 0.227430
7199.23 0.149024
7199.85 0.105214
7201.09 0.0605811
7203.56 0.0277808
7206.04 0.0160502
7210.99 0.00755616
7215.94 0.00455430
7235.74 0.00166067
7255.54 0.00116165
7275.34 0.00103429
7314.94 0.00109779
7354.54 0.00142245
7394.14 0.00219022
7413.95 0.00295960
7433.75 0.00435087
7443.65 0.00551248
7453.55 0.00727157
7463.45 0.0101251
7473.35 0.0152212
7478.30 0.0194313
7483.25 0.0257384
7488.20 0.0358131
7493.15 0.0533851
7495.62 0.0675433
7496.86 0.0768558
7498.10 0.0882366
7499.34 0.102368
7500.57 0.120175
7501.81 0.143082
7502.43 0.157066
7503.05 0.173166
7504.29 0.213798
7505.52 0.270355
7506.76 0.352323
7508.00 0.476742
7509.24 0.677567
7509.85 0.826436
7510.47 1.02609
7511.09 1.30070
7511.71 1.68580
7512.33 2.23353
7512.95 3.00666
7513.97 4.81059
7515.00 6.01079
7516.03 4.80706
7517.05 3.00508
7517.80 2.10061
7518.55 1.50794
7519.30 1.11832
7520.04 0.855346
7521.54 0.540461
7523.03 0.369573
7524.52 0.267759
7526.02 0.202613
7529.01 0.127460
7532.00 0.0875756
7534.98 0.0639964
7540.96 0.0387745
7546.94 0.0263874
7552.91 0.0195258
7558.89 0.0154752
7564.87 0.0130769
7576.82 0.0115568
7582.80 0.0124646
7588.77 0.0153039
7594.75 0.0225260
7597.74 0.0300843
7600.72 0.0440672
7603.71 0.0739377
7605.21 0.103373
7606.70 0.156180
7607.45 0.199891
7608.20 0.265443
7608.94 0.370172
7609.69 0.552688
7610.44 0.913817
7610.81 1.24426
7611.18 1.78898
7611.56 2.78489
7611.74 3.61977
7611.93 4.87245
7612.12 6.88437
7612.30 10.3361
7612.49 16.7445
7612.68 29.1647
7612.84 46.7270
7613.00 58.3403
7613.16 46.6086
7613.32 29.1629
7613.50 17.0285
7613.68 10.6862
7613.86 7.18222
7614.04 5.12368
7614.22 3.81663
7614.40 2.94989
7614.76 1.90497
7615.12 1.32823
7615.48 0.977847
7616.19 0.593158
7616.91 0.397655
7617.63 0.285324
7618.35 0.214760
7619.06 0.167686
7620.50 0.110597
7621.94 0.0786834
7623.37 0.0590360
7624.81 0.0460821
7627.68 0.0305832
7630.55 0.0220063
7636.29 0.0132934
7642.03 0.00914434
7647.77 0.00682632
7659.25 0.00442407
7670.73 0.00323952
7682.21 0.00255392
7705.17 0.00181406
7728.14 0.00143853
7751.10 0.00122605
7797.03 0.00104278
7842.95 0.00107707
7865.91 0.00120118
7888.88 0.00147275
7911.84 0.00209876
7934.80 0.00392233
7946.28 0.00647485
7952.03 0.00903165
7957.77 0.0137118
7963.51 0.0237310
7966.38 0.0337014
7969.25 0.0518370
7970.68 0.0670853
7972.12 0.0902858
7973.55 0.128133
7974.99 0.196144
7975.71 0.252630
7976.42 0.337469
7977.14 0.473783
7977.86 0.712523
7978.22 0.906120
7978.58 1.19049
7978.93 1.63224
7979.29 2.36908
7979.65 3.74115
7979.83 4.91747
7980.01 6.71890
7980.19 9.69732
7980.37 14.9862
7980.55 25.3964
7980.64 34.4364
7980.73 47.4720
7980.86 75.9924
7981.00 94.7885
7981.14 75.7668
7981.27 47.2963
7981.42 28.1229
7981.57 17.8859
7981.71 12.1543
7981.86 8.72194
7982.01 6.53408
7982.15 5.06470
7982.44 3.28649
7982.74 2.29813
7983.03 1.69488
7983.61 1.02907
7984.20 0.689960
7984.78 0.494401
7985.36 0.371552
7985.95 0.289401
7987.12 0.189826
7988.28 0.134088
7989.45 0.0997832
7990.62 0.0771831
7992.96 0.0502010
7995.29 0.0353224
7999.96 0.0203315
8004.64 0.0133075
8009.31 0.00946442
8018.65 0.00561866
8037.34 0.00285523
8056.03 0.00188864
8130.79 0.00100264
8205.54 0.000930828
8280.30 0.00104137
8355.05 0.00131987
8392.43 0.00157343
8429.81 0.00199419
8467.19 0.00281050
8485.88 0.00357675
8504.57 0.00492748
8523.25 0.00773621
8532.60 0.0104931
8541.94 0.0154772
8546.62 0.0196565
8551.29 0.0260181
8555.96 0.0364124
8560.63 0.0551629
8562.97 0.0707973
8565.30 0.0944326
8567.64 0.132633
8569.98 0.200373
8571.14 0.255853
8572.31 0.338229
8573.48 0.468096
8574.65 0.690173
8575.82 1.11679
8576.40 1.49437
8576.98 2.09766
8577.57 3.14335
8578.15 5.16872
8578.44 6.95013
8578.74 9.72822
8579.03 14.2430
8579.32 21.6757
8579.66 34.6911
8580.00 43.3700
8580.34 34.6864
8580.68 21.6727
8580.96 14.5609
8581.23 10.1329
8581.51 7.33997
8581.78 5.51487
8582.33 3.39767
8582.88 2.28729
8583.43 1.63822
8583.98 1.22962
8585.08 0.764087
8586.19 0.520121
8587.29 0.376858
8588.39 0.285742
8589.49 0.224319
8591.69 0.149172
8593.89 0.106860
8596.09 0.0808046
8598.29 0.0637892
8602.70 0.0444141
8607.10 0.0371781
8611.50 0.0529459
8612.60 0.0746883
8613.71 0.137283
8614.26 0.222463
8614.81 0.450909
8615.08 0.744992
8615.36 1.48221
8615.49 2.35960
8615.63 4.29662
8615.70 6.29683
8615.77 10.0012
8615.80 13.1651
8615.84 17.7393
8615.87 24.6937
8615.91 35.4789
8615.95 56.6352
8616.00 70.9421
8616.05 56.6349
8616.09 35.4787
8616.15 20.2489
8616.20 12.4298
8616.26 8.25064
8616.31 5.86181
8616.42 3.35100
8616.53 2.15783
8616.75 1.10527
8616.97 0.673772
8617.40 0.329665
8617.84 0.198854
8618.71 0.0997103
8619.59 0.0631789
8623.08 0.0254101
8630.07 0.0134447
8637.05 0.00995207
8644.04 0.00815788
8658.01 0.00631811
8671.98 0.00546088
8699.93 0.00493505
8727.87 0.00522630
8755.81 0.00624749
8783.76 0.00879320
8797.73 0.0118443
8804.71 0.0146901
8811.70 0.0196876
8818.69 0.0300455
8822.18 0.0401851
8825.67 0.0584668
8827.42 0.0737533
8829.17 0.0969400
8830.91 0.134678
8832.66 0.202250
8833.53 0.258260
8834.41 0.342242
8835.28 0.476617
8836.15 0.711402
8837.02 1.17800
8837.46 1.60696
8837.90 2.31821
8838.33 3.62886
8838.55 4.73390
8838.77 6.41562
8838.99 9.15057
8839.21 13.9030
8839.43 22.9437
8839.53 30.4896
8839.64 41.2050
8839.82 65.9513
8840.00 82.3048
8840.18 65.8000
8840.36 41.0875
8840.54 25.0130
8840.72 16.1700
8840.91 11.0911
8841.09 8.02448
8841.27 6.03939
8841.45 4.70402
8841.82 3.07428
8842.18 2.15900
8842.55 1.59913
8843.28 0.977297
8844.01 0.658940
8844.73 0.475185
8845.46 0.359544
8846.19 0.282121
8847.65 0.188140
8849.11 0.135557
8850.57 0.103209
8852.03 0.0819273
8854.94 0.0566042
8857.86 0.0427665
8863.69 0.0291281
8869.53 0.0231111
8875.36 0.0201834
8887.02 0.0182250
8898.69 0.0186406
8904.52 0.0193739
8910.36 0.0203976
8916.19 0.0217041
8922.02 0.0233056
8927.86 0.0252306
8933.69 0.0275243
8939.52 0.0302511
8945.36 0.0334965
8951.19 0.0373763
8957.02 0.0420455
8962.86 0.0477136
8968.69 0.0546637
8974.52 0.0632916
8980.36 0.0741549
8986.19 0.0880597
8992.02 0.106184
8997.86 0.130314
9003.69 0.163197
9009.52 0.209149
9015.35 0.274962
9021.19 0.370959
9027.02 0.510472
9036.01 0.815915
9045.00 1.01849
9053.99 0.813765
9062.98 0.508352
9073.04 0.296236
9083.10 0.185239
9093.16 0.124469
9103.22 0.0886434
9113.28 0.0660625
9123.34 0.0510214
9143.45 0.0329699
9163.57 0.0230184
9183.69 0.0169789
9223.93 0.0103546
9264.16 0.00701753
9304.40 0.00515694
9344.63 0.00430952
9354.69 0.00444359
9364.75 0.00526381
9369.78 0.00659381
9374.81 0.0105314
9377.33 0.0160544
9379.84 0.0316003
9381.10 0.0528602
9382.36 0.111203
9382.98 0.188845
9383.30 0.263264
9383.61 0.393146
9383.93 0.651956
9384.08 0.888648
9384.24 1.28130
9384.40 2.00115
9384.48 2.61233
9384.56 3.52844
9384.63 5.02443
9384.71 7.58670
9384.79 12.4915
9384.83 16.5107
9384.87 22.2640
9384.94 35.6768
9385.00 44.5280
9385.07 35.6761
9385.13 22.2635
9385.19 13.8724
9385.26 9.12897
9385.32 6.31739
9385.38 4.61237
9385.45 3.48515
9385.51 2.72881
9385.64 1.79628
9385.76 1.26516
9385.89 0.940091
9386.14 0.575931
9386.40 0.388190
9386.65 0.279813
9387.16 0.165562
9387.66 0.109698
9388.17 0.0784021
9389.18 0.0463472
9391.21 0.0226636
9393.23 0.0141461
9397.28 0.00793061
9401.33 0.00569761
9409.43 0.00404174
9417.53 0.00343338
9433.73 0.00323505
9441.83 0.00456524
9445.88 0.0103581
9447.91 0.0328663
9448.92 0.116292
9449.43 0.401471
9449.68 1.24080
9449.81 3.15801
9449.87 6.12569
9449.90 9.25291
9449.93 14.4602
9449.97 23.1214
9450.00 28.9183
9450.03 23.1214
9450.07 14.4603
9450.10 9.64437
9450.13 6.59056
9450.18 3.53538
9450.30 1.43871
9450.53 0.474615
9450.99 0.138635
9451.91 0.0390277
9453.75 0.0118820
9457.43 0.00475970
9464.79 0.00287015
9479.51 0.00227905
9508.95 0.00198121
9567.83 0.00190263
9597.27 0.00217606
9611.99 0.00251947
9626.71 0.00319415
9641.43 0.00469124
9648.79 0.00620213
9656.15 0.00897063
9659.83 0.0113090
9663.51 0.0148858
9667.19 0.0207579
9670.87 0.0314097
9672.71 0.0403349
9674.55 0.0538890
9676.39 0.0759282
9678.23 0.115349
9679.15 0.147912
9680.07 0.196671
9680.99 0.274423
9681.91 0.409593
9682.83 0.676052
9683.29 0.918511
9683.75 1.31758
9684.21 2.04051
9684.44 2.64207
9684.67 3.54399
9684.90 4.97223
9685.13 7.38843
9685.36 11.7834
9685.59 20.0812
9685.79 32.1655
9686.00 40.1708
9686.21 32.1012
9686.42 20.0797
9686.66 11.4032
9686.90 7.00296
9687.15 4.64901
9687.39 3.28309
9687.64 2.43156
9687.88 1.86886
9688.37 1.19983
9688.85 0.832818
9689.34 0.611179
9690.32 0.369120
9691.29 0.246801
9692.27 0.176738
9693.24 0.132891
9694.22 0.103656
9696.17 0.0683183
9698.12 0.0486253
9700.07 0.0365439
9702.02 0.0286230
9705.92 0.0192447
9709.82 0.0141881
9713.72 0.0112475
9717.63 0.00951238
9725.43 0.00834428
9733.23 0.0107040
9737.13 0.0154018
9741.03 0.0295358
9742.98 0.0492681
9744.93 0.104093
9745.91 0.177893
9746.89 0.375330
9747.37 0.629765
9747.62 0.867193
9747.86 1.26672
9748.10 2.02344
9748.23 2.68101
9748.35 3.71156
9748.47 5.44835
9748.59 8.66870
9748.65 11.3753
9748.71 15.4095
9748.78 21.5920
9748.84 30.9931
9748.92 49.6500
9749.00 61.9879
9749.08 49.6491
9749.16 30.9926
9749.23 21.4671
9749.29 15.3288
9749.35 11.3220
9749.41 8.63237
9749.53 5.41117
9749.65 3.69037
9749.78 2.66134
9749.90 2.01047
9750.14 1.25808
9750.39 0.859796
9750.63 0.624367
9751.12 0.372031
9751.61 0.246942
9752.10 0.176019
9753.08 0.102776
9755.04 0.0481689
9757.00 0.0283816
9760.92 0.0138538
9764.84 0.00861357
9772.68 0.00471744
9780.52 0.00325763
9796.20 0.00209847
9811.87 0.00162063
9843.23 0.00120560
9874.58 0.00102947
9937.29 0.000953292
10000.0 0.00160702
10026.4 0.00436454
10033.0 0.00721450
10039.6 0.0152398
10042.9 0.0262949
10044.5 0.0372421
10046.2 0.0568760
10047.8 0.0982309
10048.6 0.138800
10049.5 0.209883
10050.3 0.356485
10050.7 0.493100
10051.1 0.725991
10051.5 1.17122
10051.7 1.57516
10051.9 2.18637
10052.1 3.29327
10052.3 5.31000
10052.5 7.25551
10052.6 10.0115
10052.7 14.3821
10052.8 21.7335
10052.9 35.0706
10053.0 43.3833
10053.1 35.0694
10053.2 21.6447
10053.4 12.8466
10053.5 8.21430
10053.6 5.60363
10053.8 4.03244
10053.9 2.96560
10054.0 2.30766
10054.3 1.50597
10054.6 1.04413
10054.8 0.773598
10055.4 0.468742
10055.9 0.313927
10056.4 0.224817
10057.5 0.132155
10058.5 0.0866618
10059.6 0.0614351
10061.7 0.0355176
10065.9 0.0164239
10070.1 0.00960737
10078.6 0.00465862
10087.0 0.00290653
10103.9 0.00164623
10120.8 0.00120473
10154.6 0.000898669
10188.4 0.000810934
10256.0 0.000827455
10323.6 0.00100782
10391.2 0.00146790
10425.0 0.00193949
10458.8 0.00279707
10475.7 0.00351267
10492.6 0.00459198
10509.5 0.00632837
10526.4 0.00938375
10543.3 0.0155213
10551.8 0.0212210
10556.0 0.0253519
10560.2 0.0308141
10562.3 0.0342527
10564.4 0.0382805
10566.6 0.0430620
10568.7 0.0487947
10570.8 0.0557812
10572.9 0.0643213
10575.0 0.0749535
10577.1 0.0884022
10579.2 0.105817
10581.3 0.128620
10583.5 0.159310
10585.6 0.201714
10587.7 0.262013
10589.8 0.350283
10591.9 0.482499
10594.0 0.680247
10597.0 1.08285
10600.0 1.34873
10601.5 1.27033
10603.0 1.08205
10606.0 0.679479
10608.3 0.467633
10610.6 0.331209
10612.9 0.243081
10615.2 0.184647
10619.8 0.115470
10624.4 0.0784444
10629.0 0.0565858
10633.6 0.0426885
10642.7 0.0267527
10651.9 0.0183437
10661.1 0.0133850
10670.3 0.0102232
10679.5 0.00808708
10697.8 0.00547548
10716.2 0.00400851
10734.5 0.00311337
10752.9 0.00254000
10789.6 0.00194242
10826.3 0.00191179
10844.7 0.00229007
10853.9 0.00274717
10863.1 0.00363806
10872.2 0.00561484
10881.4 0.0112952
10886.0 0.0191899
10888.3 0.0270773
10890.6 0.0413668
10892.9 0.0717993
10894.1 0.101818
10895.2 0.155227
10896.3 0.267083
10896.9 0.376266
10897.5 0.564774
10897.8 0.720300
10898.1 0.949962
10898.4 1.30926
10898.6 1.88929
10898.9 3.00745
10899.1 3.93241
10899.2 5.34677
10899.4 7.86774
10899.5 12.1200
10899.6 20.4641
10899.7 27.6611
10899.8 39.4801
10899.9 62.3725
10900.0 79.0408
10900.1 62.3708
10900.2 39.4791
10900.3 25.3128
10900.4 16.7718
10900.5 11.7193
10900.6 8.57478
10900.8 5.10310
10901.0 3.35989
10901.2 2.37182
10901.4 1.76084
10901.8 1.07836
10902.2 0.726887
10902.6 0.522770
10903.0 0.393924
10903.4 0.307461
10904.2 0.202284
10905.0 0.143203
10906.6 0.0826963
10908.2 0.0539241
10909.8 0.0380292
10913.0 0.0219862
10919.4 0.0103273
10925.8 0.00618508
10938.6 0.00318673
10951.4 0.00211847
10977.0 0.00133741
11002.6 0.00105821
11053.8 0.000879242
11105.0 0.000885440
11156.2 0.00102872
11207.4 0.00142057
11233.0 0.00184520
11258.6 0.00270278
11271.4 0.00355115
11284.2 0.00526596
11290.6 0.00710017
11297.0 0.0114058
11300.2 0.0167711
11303.4 0.0309890
11305.0 0.0498770
11305.8 0.0682359
11306.6 0.100905
11307.4 0.167962
11307.8 0.231827
11308.2 0.342454
11308.6 0.559414
11308.8 0.755795
11309.0 1.07724
11309.2 1.65480
11309.3 2.13143
11309.4 2.84021
11309.5 3.95030
11309.6 5.79968
11309.7 9.09235
11309.8 15.3426
11309.9 24.9194
11310.0 30.5991
11310.1 24.9188
11310.2 15.2612
11310.3 9.54692
11310.4 6.04777
11310.5 4.09443
11310.6 2.92972
11310.7 2.19032
11310.8 1.69547
11311.0 1.12080
11311.2 0.781654
11311.4 0.584382
11311.8 0.358784
11312.1 0.243581
11312.5 0.177064
11313.3 0.107333
11314.1 0.0735481
11314.9 0.0547457
11316.4 0.0358450
11319.6 0.0228630
11322.7 0.0194782
11328.9 0.0208960
11335.2 0.0288802
11338.3 0.0363117
11341.4 0.0478184
11344.6 0.0667554
11347.7 0.100550
11349.3 0.128587
11350.8 0.170168
11352.4 0.236053
11353.9 0.349485
11355.5 0.571669
11356.3 0.769792
11357.1 1.09036
11357.8 1.65641
11358.6 2.78557
11359.0 3.81049
11359.4 5.46171
11359.8 8.26574
11360.2 13.1395
11360.6 21.0434
11361.0 26.3198
11361.4 21.0407
11361.8 13.1378
11362.3 7.64113
11362.7 4.77108
11363.2 3.20229
11363.7 2.27845
11364.1 1.69657
11364.6 1.30917
11365.5 0.844449
11366.4 0.588343
11367.3 0.432911
11369.2 0.262890
11371.0 0.176107
11372.9 0.126239
11374.7 0.0949906
11376.5 0.0742255
11380.2 0.0489450
11383.9 0.0348550
11387.6 0.0261694
11391.2 0.0204703
11398.6 0.0136706
11405.9 0.00993983
11413.3 0.00768601
11420.6 0.00623198
11450.0 0.00373937
11479.4 0.00320245
11508.8 0.00355831
11523.5 0.00412819
11538.2 0.00519101
11552.9 0.00735629
11560.3 0.00940366
11567.6 0.0129840
11575.0 0.0202821
11578.6 0.0272915
11582.3 0.0396013
11586.0 0.0646446
11587.8 0.0882738
11589.7 0.128542
11591.5 0.206732
11592.4 0.276478
11592.9 0.325518
11593.3 0.387313
11593.8 0.470515
11594.2 0.583332
11594.7 0.741130
11595.2 0.970114
11595.6 1.31707
11595.9 1.55955
11596.1 1.86906
11596.3 2.26885
11596.5 2.79006
11596.8 3.47164
11597.0 4.31101
11597.5 6.93201
11598.0 8.63759
11598.3 8.09836
11598.5 6.87647
11599.0 4.31045
11599.4 2.92279
11599.8 2.04714
11600.2 1.49062
11600.6 1.12482
11601.4 0.698505
11602.2 0.473152
11603.0 0.341180
11603.8 0.257747
11605.4 0.163031
11607.0 0.112956
11608.6 0.0835975
11611.8 0.0525568
11615.0 0.0374288
11618.2 0.0291490
11624.6 0.0212909
11631.0 0.0184888
11637.3 0.0180938
11650.1 0.0220838
11656.5 0.0267903
11662.9 0.0344476
11669.3 0.0472667
11675.7 0.0703617
11678.9 0.0894796
11682.1 0.117892
11685.2 0.162819
11688.4 0.239878
11691.6 0.389129
11693.2 0.521995
11694.8 0.733836
11696.4 1.10572
11698.0 1.82834
11698.8 2.47430
11699.6 3.49391
11700.4 5.17749
11701.2 7.95765
11702.1 12.7577
11703.0 15.9667
11703.9 12.7542
11704.8 7.95529
11705.4 5.66206
11706.0 4.14439
11706.7 3.10711
11707.3 2.40579
11708.5 1.54146
11709.7 1.06633
11710.9 0.776727
11712.2 0.591060
11714.6 0.373603
11717.1 0.257034
11719.5 0.187556
11724.4 0.112517
11729.3 0.0749921
11734.2 0.0536705
11739.1 0.0403844
11744.0 0.0315511
11753.8 0.0208983
11763.6 0.0149788
11773.4 0.0113517
11783.2 0.00897983
11802.9 0.00618703
11822.5 0.00470918
11842.1 0.00389149
11861.7 0.00347142
11900.9 0.00351841
11920.5 0.00408406
11940.1 0.00535818
11959.7 0.00828963
11969.5 0.0112542
11979.3 0.0166360
11984.2 0.0211438
11989.1 0.0279498
11994.0 0.0389464
11998.9 0.0584288
12001.4 0.0743681
12003.8 0.0980110
12006.3 0.135235
12008.7 0.198772
12011.2 0.320484
12012.4 0.428433
12013.6 0.598970
12014.9 0.895773
12016.1 1.46182
12016.7 1.96478
12017.3 2.73193
12017.9 3.96370
12018.5 5.96184
12019.3 9.52853
12020.0 11.9011
12020.7 9.52645
12021.5 5.96051
12022.1 3.93770
12022.7 2.71618
12023.3 1.95499
12023.9 1.46210
12025.1 0.896175
12026.4 0.601222
12027.6 0.428938
12028.8 0.321732
12031.2 0.200083
12033.7 0.136333
12036.1 0.0991821
12038.6 0.0756128
12041.0 0.0597642
12045.9 0.0405072
12050.8 0.0298784
12055.7 0.0236059
12060.6 0.0198783
12070.3 0.0173729
12080.1 0.0226296
12085.0 0.0330020
12089.9 0.0639196
12092.3 0.106667
12093.6 0.148409
12094.8 0.222714
12095.4 0.283736
12096.0 0.374543
12096.6 0.518088
12097.2 0.764449
12097.8 1.24033
12098.1 1.67267
12098.4 2.34525
12098.8 3.56372
12099.1 5.88184
12099.2 8.10820
12099.4 11.4481
12099.5 16.9751
12099.7 26.8641
12099.8 42.6215
12100.0 53.7305
12100.2 42.6196
12100.3 26.8629
12100.5 15.6259
12100.7 9.91669
12100.9 6.60042
12101.1 4.74732
12101.3 3.51110
12101.4 2.73092
12101.8 1.76288
12102.2 1.22903
12102.6 0.904896
12103.3 0.548896
12104.0 0.368390
12104.8 0.264578
12105.5 0.199477
12106.2 0.156477
12107.7 0.103575
12109.2 0.0741397
12110.7 0.0558650
12112.1 0.0438802
12115.1 0.0294496
12118.0 0.0214267
12121.0 0.0164875
12123.9 0.0132166
12129.9 0.00925175
12135.8 0.00700778
12147.6 0.00462771
12159.4 0.00341273
12171.2 0.00268636
12194.8 0.00186499
12218.4 0.00141655
12242.0 0.00113614
12289.2 0.000808239
12336.4 0.000625593
12383.6 0.000511514
12478.1 0.000382499
12572.5 0.000321730
12666.9 0.000311439
12761.4 0.000439531
12808.6 0.000988723
12832.2 0.00313177
12844.0 0.0115028
12847.0 0.0200123
12849.9 0.0437224
12851.4 0.0760291
12852.9 0.163221
12853.6 0.278462
12854.3 0.577830
12854.7 0.948606
12854.9 1.29420
12855.1 1.82731
12855.3 2.83396
12855.5 4.76218
12855.5 6.50974
12855.6 9.32057
12855.7 14.0827
12855.8 22.3338
12855.9 36.4832
12856.0 44.6697
12856.1 34.9788
12856.2 22.3335
12856.3 14.7932
12856.3 10.6293
12856.4 7.58811
12856.5 5.83813
12856.6 3.61801
12856.8 2.50211
12856.9 1.78990
12857.1 1.36562
12857.4 0.855400
12857.7 0.584831
12857.9 0.424680
12858.5 0.252798
12859.7 0.119071
12860.8 0.0690483
12863.2 0.0317531
12865.5 0.0182589
12870.1 0.00840406
12874.8 0.00491231
12893.4 0.00152987
12930.5 0.000840827
12967.7 0.00156669
12986.2 0.00494106
12995.5 0.0181790
12997.9 0.0315688
13000.2 0.0686283
13001.3 0.118431
13002.5 0.251957
13003.1 0.424194
13003.4 0.585160
13003.7 0.857969
13003.9 1.37479
13004.1 1.84475
13004.2 2.53441
13004.4 3.79089
13004.5 5.98133
13004.6 8.12857
13004.7 10.9932
13004.7 15.3714
13004.8 22.0781
13004.9 36.0653
13005.0 44.1581
13005.1 34.5782
13005.2 22.0777
13005.3 14.6239
13005.4 10.0505
13005.4 7.21281
13005.5 5.57168
13005.7 3.47609
13005.8 2.35799
13006.0 1.69865
13006.1 1.27959
13006.4 0.798975
13006.7 0.538905
13007.0 0.391484
13007.6 0.233200
13008.8 0.109407
13010.0 0.0636051
13012.4 0.0292229
13014.9 0.0168713
13019.7 0.00785219
13024.5 0.00465492
13043.8 0.00159207
13082.5 0.00115230
13121.1 0.00291593
13130.8 0.00485872
13140.4 0.0103824
13145.3 0.0180260
13150.1 0.0394383
13152.5 0.0687464
13153.7 0.0975984
13154.9 0.148849
13156.1 0.255786
13156.7 0.359716
13157.3 0.538548
13157.7 0.688216
13158.0 0.901111
13158.3 1.22971
13158.6 1.77482
13158.9 2.77411
13159.0 3.61596
13159.2 4.89394
13159.3 6.95287
13159.5 10.5233
13159.6 17.2595
13159.8 30.7097
13159.9 49.8897
13160.0 61.3625
13160.1 48.3198
13160.3 30.7088
13160.4 18.5599
13160.5 11.9060
13160.6 8.13677
13160.8 6.00171
13160.9 4.49563
13161.0 3.48372
13161.3 2.29352
13161.5 1.59896
13161.8 1.18955
13162.3 0.730706
13162.8 0.490046
13163.3 0.353311
13164.3 0.207478
13165.3 0.135833
13166.3 0.0961149
13168.4 0.0554288
13170.4 0.0360090
13172.4 0.0253465
13176.5 0.0145634
13184.6 0.00674543
13192.7 0.00398147
13208.9 0.00200771
13225.1 0.00133624
13257.5 0.000936046
13289.8 0.000962760
13322.2 0.00133127
13354.6 0.00257912
13370.8 0.00436340
13378.9 0.00615418
13387.0 0.00942914
13395.1 0.0164144
13399.2 0.0233354
13403.2 0.0358574
13405.3 0.0463509
13407.3 0.0621601
13409.3 0.0878883
13411.3 0.133384
13412.4 0.171119
13413.4 0.226761
13414.4 0.314625
13415.4 0.465216
13416.4 0.755517
13416.9 1.01658
13417.4 1.42707
13417.9 2.15784
13418.4 3.55774
13418.7 4.85569
13418.9 6.83038
13419.2 10.0683
13419.4 15.4573
13419.7 24.9177
13420.0 30.9395
13420.3 24.5682
13420.6 15.4562
13420.8 9.90389
13421.1 6.63517
13421.4 4.67459
13421.6 3.47943
13422.1 2.10125
13422.6 1.39624
13423.1 0.991768
13423.6 0.739562
13424.7 0.455569
13425.7 0.308193
13426.7 0.222179
13427.7 0.167694
13428.7 0.131036
13430.8 0.0863267
13432.8 0.0611448
13434.9 0.0455801
13436.9 0.0352941
13441.0 0.0229745
13445.1 0.0161593
13449.1 0.0119981
13453.2 0.00927236
13461.4 0.00603637
13469.5 0.00426140
13485.9 0.00248028
13502.2 0.00164771
13518.5 0.00119264
13551.2 0.000736799
13616.4 0.000409429
13681.7 0.000299472
13812.3 0.000270916
13877.6 0.000412632
13910.2 0.000925918
13926.6 0.00285450
13934.7 0.0103414
13938.8 0.0392122
13940.8 0.146970
13941.4 0.251066
13941.9 0.522565
13942.1 0.870270
13942.4 1.66871
13942.5 2.59566
13942.6 4.53573
13942.7 6.57320
13942.8 9.53104
13942.8 14.6631
13942.9 23.8275
13942.9 38.1245
13943.0 47.6558
13943.1 38.1242
13943.1 23.8274
13943.2 15.8483
13943.2 11.7305
13943.3 6.96699
13943.4 4.32161
13943.5 3.03671
13943.6 1.66878
13943.8 1.04899
13944.1 0.522612
13944.5 0.311615
13945.2 0.147006
13945.8 0.0853072
13948.6 0.0226546
13954.0 0.00611073
13964.8 0.00191205
13986.5 0.00108140
14008.2 0.00189895
14019.1 0.00530023
14024.5 0.0181493
14027.2 0.0667857
14028.5 0.245163
14028.9 0.414279
14029.2 0.844961
14029.4 1.36509
14029.6 2.55364
14029.7 3.91064
14029.7 6.21537
14029.8 11.0465
14029.9 15.4992
14029.9 23.2677
14030.0 38.0655
14030.0 46.5350
14030.1 38.0654
14030.1 23.2677
14030.2 15.4992
14030.2 10.2058
14030.3 5.16580
14030.4 3.05458
14030.5 2.08150
14030.7 1.07413
14030.9 0.666779
14031.3 0.323213
14031.7 0.190276
14033.2 0.0520591
14036.3 0.0146583
14042.5 0.00532149
14054.9 0.00496294
14061.1 0.00764313
14067.3 0.0158561
14070.4 0.0272732
14073.5 0.0588849
14075.1 0.101233
14075.9 0.142483
14076.6 0.214081
14077.4 0.359836
14077.8 0.495743
14078.2 0.717724
14078.6 1.14315
14078.8 1.52257
14079.0 2.08422
14079.2 3.07502
14079.3 4.79686
14079.4 6.29611
14079.5 8.25710
14079.6 11.5039
14079.7 16.0150
14079.9 25.5139
14080.0 32.0319
14080.1 25.5132
14080.3 16.0145
14080.4 10.0377
14080.5 6.67215
14080.7 4.55847
14080.8 3.35369
14081.0 2.50992
14081.1 1.97719
14081.4 1.29430
14081.6 0.910180
14081.9 0.673889
14082.4 0.414593
14083.0 0.278445
14083.5 0.199756
14084.6 0.117625
14085.7 0.0771782
14086.7 0.0546995
14088.9 0.0316342
14093.2 0.0145198
14097.5 0.00838633
14106.0 0.00391417
14114.6 0.00232141
14149.0 0.000750003
14217.7 0.000352948
14286.4 0.000302446
14355.1 0.000324463
14423.8 0.000401188
14492.4 0.000578032
14526.8 0.000761412
14561.1 0.00115116
14595.5 0.00269199
14604.1 0.00412322
14612.7 0.00804455
14617.0 0.0134204
14621.2 0.0284252
14623.4 0.0490265
14625.5 0.105685
14626.6 0.182624
14627.2 0.257573
14627.7 0.387292
14628.2 0.654357
14628.5 0.905292
14628.8 1.31220
14629.0 2.10772
14629.2 2.83560
14629.3 3.90134
14629.4 5.86075
14629.6 9.27423
14629.6 12.3911
14629.7 16.3439
14629.8 23.3829
14629.8 32.9299
14629.9 52.3993
14630.0 65.7506
14630.1 52.3984
14630.2 32.9293
14630.3 22.1675
14630.3 15.5766
14630.4 10.8989
14630.5 8.27250
14630.6 5.02319
14630.8 3.34709
14630.9 2.38131
14631.1 1.77758
14631.4 1.09639
14631.7 0.742349
14632.0 0.535554
14632.6 0.316312
14633.2 0.208727
14633.8 0.148128
14635.0 0.0859250
14637.4 0.0399127
14639.8 0.0233856
14644.6 0.0114295
14649.4 0.00726002
14668.6 0.00361098
14687.7 0.00366710
14706.9 0.00486589
14726.1 0.00774265
14735.7 0.0105774
14745.3 0.0155982
14750.1 0.0197242
14754.9 0.0258901
14759.7 0.0357437
14764.5 0.0529921
14766.9 0.0670553
14769.3 0.0878732
14771.7 0.120641
14774.1 0.176394
14776.5 0.284190
14777.7 0.380107
14778.9 0.534377
14780.1 0.804571
14781.3 1.33688
14781.9 1.81368
14782.5 2.57121
14783.1 3.83290
14783.7 5.92576
14784.3 9.47902
14785.0 11.8482
14785.7 9.47809
14786.3 5.92595
14786.9 3.86141
14787.5 2.63845
14788.1 1.87694
14788.6 1.39939
14789.8 0.853304
14790.9 0.572939
14792.1 0.412032
14793.2 0.311931
14795.5 0.200559
14797.8 0.144066
14800.1 0.113132
14804.7 0.0880400
14809.3 0.0931023
14811.6 0.108570
14813.9 0.139161
14815.0 0.164226
14816.2 0.200057
14817.3 0.252828
14817.9 0.288431
14818.5 0.332969
14819.1 0.390607
14819.6 0.463824
14820.2 0.561939
14820.8 0.691471
14821.4 0.872372
14821.9 1.12118
14822.5 1.47297
14823.1 1.96726
14824.0 3.14658
14825.0 3.92235
14825.5 3.68468
14826.0 3.13184
14826.9 1.96426
14827.8 1.29328
14828.6 0.885978
14829.4 0.635406
14830.2 0.476266
14831.9 0.293343
14833.5 0.198439
14835.2 0.143407
14836.8 0.108773
14840.1 0.0692935
14843.5 0.0483969
14846.8 0.0360231
14853.4 0.0225521
14860.0 0.0156669
14866.6 0.0116400
14879.8 0.00728341
14893.0 0.00506048
14906.2 0.00375886
14932.6 0.00235862
14959.0 0.00165667
14985.4 0.00125881
15038.3 0.000871957
15091.1 0.000767724
15117.5 0.000810342
15143.9 0.000959965
15170.3 0.00134948
15196.7 0.00252292
15210.0 0.00416993
15223.2 0.00881831
15229.8 0.0152239
15233.1 0.0215629
15236.4 0.0330364
15239.7 0.0571661
15241.3 0.0807317
15243.0 0.122695
15243.8 0.157456
15244.6 0.208644
15245.5 0.290807
15246.3 0.430669
15247.1 0.706183
15247.5 0.950517
15247.9 1.34528
15248.3 2.06413
15248.6 2.65382
15248.8 3.47465
15249.0 4.79571
15249.2 6.82451
15249.4 10.4565
15249.6 16.5568
15249.8 26.6905
15250.0 33.1170
15250.2 26.6893
15250.4 16.5560
15250.6 11.6737
15250.7 8.29991
15250.9 6.10714
15251.1 4.71782
15251.4 2.98409
15251.7 2.04116
15252.0 1.47849
15252.3 1.11803
15252.9 0.701584
15253.5 0.480208
15254.2 0.348989
15254.8 0.264973
15255.4 0.208000
15256.6 0.137954
15257.9 0.0981909
15259.1 0.0734832
15260.4 0.0570940
15262.8 0.0373964
15265.3 0.0264700
15270.3 0.0154266
15275.2 0.0102727
15280.2 0.00750179
15290.1 0.00495199
15300.0 0.00433269
15310.0 0.00567038
15319.9 0.0161958
15322.4 0.0272090
15324.8 0.0578191
15326.1 0.0989697
15327.3 0.209144
15327.9 0.350938
15328.6 0.706806
15328.9 1.12902
15329.0 1.51059
15329.2 2.07110
15329.3 3.08264
15329.5 4.84209
15329.6 6.41862
15329.6 8.80896
15329.7 12.5475
15329.8 17.9644
15329.9 28.9795
15330.0 35.8419
15330.1 28.9790
15330.2 17.8769
15330.3 10.9420
15330.4 6.92351
15330.5 4.68482
15330.6 3.35071
15330.9 1.93691
15331.1 1.25334
15331.3 0.874836
15331.5 0.644434
15332.0 0.390804
15332.8 0.187770
15333.7 0.110117
15335.5 0.0513725
15337.2 0.0299404
15340.8 0.0140389
15344.3 0.00833231
15358.3 0.00260736
15386.4 0.000994581
15442.6 0.000465242
15555.0 0.000282756
15611.2 0.000277431
15667.4 0.000326520
15695.5 0.000403433
15723.6 0.000612364
15751.7 0.00166209
15765.8 0.00569721
15772.8 0.0213400
15774.6 0.0371482
15776.3 0.0803908
15777.2 0.138406
15778.1 0.292790
15778.5 0.490000
15779.0 0.979282
15779.2 1.55117
15779.4 2.79967
15779.5 4.05135
15779.6 6.29939
15779.7 10.7607
15779.8 14.2089
15779.8 19.4184
15779.9 31.5293
15780.0 38.7218
15780.1 31.5290
15780.2 19.3026
15780.2 12.6827
15780.3 8.32742
15780.4 5.77691
15780.5 4.20345
15780.6 2.48249
15780.8 1.66610
15781.1 0.877813
15781.4 0.539182
15782.0 0.262205
15782.7 0.154452
15783.9 0.0716669
15785.1 0.0414535
15790.1 0.0110167
15800.1 0.00312696
15819.9 0.00120354
15839.8 0.000988691
15859.7 0.00115510
15869.6 0.00137226
15879.6 0.00173429
15889.5 0.00235343
15899.5 0.00350116
15904.4 0.00447304
15909.4 0.00595887
15914.4 0.00839260
15919.3 0.0127866
15921.8 0.0164575
15924.3 0.0219790
15926.8 0.0309240
15929.3 0.0466734
15930.5 0.0596419
15931.8 0.0786966
15934.2 0.159297
15935.5 0.256686
15936.1 0.341431
15936.7 0.475216
15937.0 0.572905
15937.4 0.703071
15937.7 0.881174
15938.0 1.13243
15938.3 1.49933
15938.6 2.05516
15938.9 2.92468
15939.2 4.29218
15939.6 6.88611
15940.0 8.55134
15940.2 8.03980
15940.4 6.81672
15940.8 4.29177
15941.1 2.95960
15941.4 2.12278
15941.7 1.57346
15942.0 1.20298
15942.5 0.759598
15943.1 0.519033
15943.7 0.375699
15944.3 0.283968
15945.4 0.178095
15946.6 0.121865
15947.8 0.0885539
15948.9 0.0672340
15950.1 0.0527805
15952.4 0.0350153
15954.7 0.0249326
15957.0 0.0186680
15959.4 0.0145124
15964.0 0.00951648
15968.6 0.00674283
15973.3 0.00504551
15977.9 0.00393216
15987.2 0.00260942
15996.5 0.00188452
16005.8 0.00144586
16015.0 0.00116152
16033.6 0.000831293
16052.2 0.000660268
16089.3 0.000525588
16126.4 0.000549751
16163.5 0.000809910
16200.6 0.00238870
16219.2 0.00866032
16223.8 0.0150654
16228.5 0.0330028
16230.8 0.0574762
16233.1 0.124651
16234.3 0.213959
16234.9 0.299703
16235.4 0.449463
16236.0 0.746871
16236.3 1.01966
16236.6 1.47260
16236.9 2.30406
16237.0 3.03514
16237.2 4.07220
16237.3 5.87161
16237.5 8.79190
16237.6 14.7543
16237.8 26.1600
16237.9 41.6647
16238.0 52.2130
16238.1 41.6638
16238.2 26.0500
16238.4 15.9251
16238.5 9.99977
16238.6 6.72990
16238.7 4.91302
16238.9 3.64950
16239.0 2.81012
16239.3 1.83412
16239.5 1.27102
16239.8 0.941707
16240.3 0.570311
16240.8 0.381738
16241.3 0.273213
16242.3 0.159664
16243.3 0.104609
16244.4 0.0738281
16246.4 0.0425365
16250.5 0.0194336
16254.5 0.0111620
16262.7 0.00516975
16270.8 0.00305290
16303.4 0.00102693
16335.9 0.000713877
16368.5 0.000715971
16401.1 0.000949403
16417.3 0.00122440
16433.6 0.00174444
16441.8 0.00218821
16449.9 0.00286751
16458.1 0.00398170
16466.2 0.00599527
16470.3 0.00767465
16474.3 0.0102124
16478.4 0.0143101
16482.5 0.0215637
16484.5 0.0275102
16486.5 0.0362787
16488.6 0.0501351
16490.6 0.0736185
16492.7 0.118687
16493.7 0.158374
16494.7 0.220653
16495.2 0.266738
16495.7 0.328453
16496.2 0.413427
16496.7 0.534254
16497.2 0.712487
16497.7 0.986044
16498.3 1.42111
16498.8 2.10119
16499.4 3.36673
16500.0 4.19011
16500.3 3.93366
16500.6 3.34502
16501.3 2.10088
16501.7 1.45351
16502.2 1.03407
16502.7 0.761520
16503.1 0.582481
16504.1 0.366467
16505.0 0.249839
16505.9 0.179995
16506.9 0.135971
16508.7 0.0852382
16510.6 0.0582248
16512.4 0.0423425
16514.3 0.0321805
16516.2 0.0252932
16519.9 0.0168136
16523.6 0.0120090
16527.4 0.00902776
16531.1 0.00705694
16538.5 0.00468454
16546.0 0.00337306
16553.4 0.00257370
16560.9 0.00205265
16575.8 0.00144293
16590.7 0.00112315
16620.5 0.000857534
16650.3 0.000861589
16665.2 0.000971650
16680.1 0.00122022
16695.1 0.00179563
16710.0 0.00346379
16717.4 0.00579270
16724.9 0.0123607
16728.6 0.0214275
16732.3 0.0466230
16734.2 0.0810124
16735.1 0.114496
16736.0 0.174144
16737.0 0.296386
16737.4 0.414015
16737.9 0.612499
16738.4 1.00793
16738.6 1.35610
16738.8 1.91824
16739.1 2.96713
16739.2 3.83625
16739.3 5.00181
16739.4 6.95639
16739.5 9.85122
16739.7 15.2623
16739.8 24.1350
16739.9 38.4871
16740.0 48.2719
16740.1 38.4864
16740.2 24.1345
16740.4 14.6803
16740.5 9.52519
16740.6 6.37725
16740.7 4.63796
16740.9 3.43410
16741.0 2.68866
16741.2 1.77001
16741.5 1.23338
16741.7 0.907265
16742.2 0.553835
16742.7 0.369898
16743.2 0.265997
16744.2 0.155700
16745.2 0.102147
16746.2 0.0721798
16748.1 0.0416960
16752.1 0.0191382
16756.1 0.0110871
16764.0 0.00525003
16771.9 0.00319497
16787.7 0.00174573
16803.5 0.00127690
16835.1 0.00107664
16866.8 0.00128006
16898.4 0.00194819
16914.2 0.00265780
16930.0 0.00396765
16938.0 0.00507377
16945.9 0.00675949
16953.8 0.00950841
16961.7 0.0144388
16965.6 0.0185266
16969.6 0.0246432
16973.6 0.0344461
16977.5 0.0515009
16981.5 0.0853866
16983.4 0.116418
16985.4 0.167505
16987.4 0.261308
16988.4 0.340142
16989.4 0.458023
16990.4 0.648672
16991.3 0.977218
16992.3 1.59119
16993.3 2.78375
16994.2 4.46976
16995.0 5.57786
16995.9 4.44779
16996.7 2.78323
16997.4 1.80350
16998.2 1.21875
16998.9 0.864027
16999.7 0.638966
17001.2 0.385716
17002.7 0.256861
17004.2 0.182357
17005.7 0.135942
17008.7 0.0838482
17011.7 0.0567262
17014.7 0.0409539
17017.7 0.0309572
17020.6 0.0242285
17026.6 0.0160080
17032.6 0.0113854
17038.6 0.00852318
17044.6 0.00663489
17056.6 0.00437005
17068.5 0.00311928
17080.5 0.00235661
17092.5 0.00185828
17116.4 0.00127062
17140.4 0.000954937
17188.3 0.000662546
17236.1 0.000580462
17284.0 0.000676557
17331.9 0.00148670
17355.9 0.00473652
17367.8 0.0174463
17370.8 0.0304079
17373.8 0.0664116
17375.3 0.115406
17376.8 0.247404
17377.6 0.421435
17377.9 0.589543
17378.3 0.871888
17378.7 1.43794
17378.9 1.95110
17379.1 2.73510
17379.3 4.19496
17379.4 6.93370
17379.5 9.70808
17379.6 13.7573
17379.7 20.4960
17379.8 32.4257
17379.9 51.4886
17380.0 64.6892
17380.1 51.4879
17380.2 32.2615
17380.3 23.6681
17380.3 17.8434
17380.5 10.4478
17380.6 6.72142
17380.7 4.76996
17380.8 3.46670
17381.0 2.68031
17381.2 1.70640
17381.5 1.16286
17381.7 0.851967
17382.2 0.512962
17382.7 0.339703
17383.2 0.242891
17384.2 0.141827
17386.2 0.0651888
17388.3 0.0375052
17392.3 0.0171879
17396.3 0.00995002
17404.4 0.00472972
17412.4 0.00289861
17444.7 0.00120797
17476.9 0.00105858
17509.2 0.00128946
17541.4 0.00198663
17557.5 0.00271734
17573.6 0.00405988
17581.7 0.00518918
17589.8 0.00690582
17597.8 0.00969698
17605.9 0.0146849
17609.9 0.0188004
17613.9 0.0249552
17618.0 0.0347536
17622.0 0.0517470
17626.0 0.0851220
17628.0 0.115465
17630.1 0.164947
17632.1 0.254490
17633.1 0.328626
17634.1 0.437865
17635.1 0.610920
17636.1 0.900520
17637.1 1.41908
17638.1 2.37073
17639.1 3.80649
17640.0 4.75205
17641.0 3.78962
17641.9 2.37025
17642.7 1.55783
17643.5 1.06908
17644.3 0.763604
17645.1 0.569731
17646.7 0.347117
17648.3 0.231930
17649.9 0.165383
17651.6 0.123693
17654.8 0.0766523
17658.0 0.0520521
17661.2 0.0376695
17664.4 0.0285527
17667.6 0.0224357
17674.1 0.0149640
17680.5 0.0107933
17686.9 0.00825597
17693.4 0.00664486
17706.2 0.00501806
17719.1 0.00515679
17732.0 0.0113405
17738.4 0.0379573
17740.0 0.0650499
17741.6 0.139982
17742.5 0.241384
17743.3 0.508677
17743.7 0.849567
17744.1 1.69368
17744.3 2.67857
17744.5 4.82600
17744.6 6.97870
17744.7 10.8520
17744.7 14.0116
17744.8 18.5923
17744.8 25.3819
17744.9 36.1825
17744.9 58.9888
17745.0 72.3650
17745.1 58.9884
17745.1 36.1823
17745.2 22.3365
17745.3 14.7936
17745.4 9.86631
17745.4 7.26732
17745.6 4.23103
17745.7 2.82151
17746.0 1.44610
17746.3 0.888048
17746.9 0.427709
17747.5 0.252917
17748.7 0.118102
17749.8 0.0684935
17752.2 0.0318722
17754.5 0.0186984
17763.9 0.00560902
17782.6 0.00205417
17820.1 0.000914150
17857.6 0.000596003
17895.0 0.000447537
17970.0 0.000333848
18007.4 0.000402750
18026.2 0.000798631
18035.6 0.00240707
18040.2 0.00871209
18042.6 0.0328344
18043.7 0.121082
18044.3 0.423102
18044.6 1.27531
18044.8 3.23313
18044.8 5.96633
18044.9 14.3610
18045.0 23.2361
18045.0 28.7923
18045.0 23.2361
18045.1 14.3611
18045.2 5.96637
18045.2 3.23316
18045.4 1.34193
18045.7 0.449127
18046.2 0.129107
18047.4 0.0350907
18049.6 0.00930832
18054.1 0.00255006
18063.2 0.000823728
18081.3 0.000384872
18117.5 0.000278222
18189.9 0.000314848
18262.3 0.000747264
18298.5 0.00251516
18307.6 0.00433382
18316.6 0.00946718
18321.1 0.0165528
18325.7 0.0362580
18327.9 0.0631287
18329.1 0.0893133
18330.2 0.135972
18331.3 0.231634
18331.9 0.323510
18332.5 0.479227
18333.0 0.788481
18333.3 1.06201
18333.6 1.50456
18333.9 2.32459
18334.0 2.97551
18334.2 3.93086
18334.3 5.40112
18334.4 7.79273
18334.6 11.9144
18334.7 19.7947
18334.9 31.7284
18335.0 39.5213
18335.1 31.7277
18335.3 19.7243
18335.4 13.1513
18335.5 9.00544
18335.6 6.44407
18335.8 4.79733
18336.0 2.92077
18336.2 1.95001
18336.5 1.38933
18336.7 1.03818
18337.2 0.641189
18337.7 0.434429
18338.2 0.313487
18339.1 0.185983
18340.1 0.122471
18341.0 0.0869909
18342.9 0.0502452
18346.8 0.0229854
18350.6 0.0131596
18358.2 0.00600242
18365.9 0.00346540
18381.2 0.00163623
18396.4 0.000993649
18457.6 0.000395728
18518.7 0.000426353
18549.3 0.000971059
18564.6 0.00320940
18572.3 0.0120354
18576.1 0.0461835
18578.0 0.173921
18578.5 0.298551
18578.9 0.626930
18579.2 1.04115
18579.4 2.05004
18579.5 3.20300
18579.7 5.64554
18579.7 8.01364
18579.8 12.1104
18579.8 19.8055
18579.9 34.6953
18580.0 55.5991
18580.0 69.1178
18580.1 55.5989
18580.1 34.6952
18580.2 19.8055
18580.2 12.1105
18580.3 8.01372
18580.3 5.64561
18580.5 3.20307
18580.6 2.12042
18580.8 1.06666
18581.0 0.651070
18581.5 0.310492
18582.0 0.181010
18583.9 0.0481202
18587.6 0.0125078
18595.1 0.00332486
18610.1 0.000987383
18640.1 0.000398851
18700.0 0.000262281
18759.9 0.000261672
18819.9 0.000302222
18879.8 0.000396265
18909.8 0.000484928
18939.8 0.000637734
18969.7 0.000946122
18999.7 0.00177451
19014.7 0.00289557
19029.7 0.00602319
19037.2 0.0103313
19044.7 0.0223682
19048.4 0.0388285
19050.3 0.0549790
19052.1 0.0839503
19054.0 0.144473
19055.0 0.202891
19055.9 0.304053
19056.8 0.508036
19057.3 0.696608
19057.8 1.00356
19058.2 1.58188
19058.5 2.08753
19058.7 2.83145
19058.9 4.10433
19059.2 6.26663
19059.4 10.4207
19059.5 14.1051
19059.6 18.9865
19059.8 30.6753
19060.0 37.9751
19060.2 30.6744
19060.4 18.9860
19060.6 10.9409
19060.8 6.66145
19061.0 4.39463
19061.2 3.13560
19061.5 2.30991
19061.7 1.76799
19062.1 1.13774
19062.5 0.785308
19063.0 0.577720
19063.8 0.347929
19064.7 0.232153
19065.6 0.165847
19067.3 0.0970347
19069.1 0.0635525
19070.8 0.0448928
19074.3 0.0259562
19081.2 0.0120626
19088.2 0.00712576
19115.9 0.00240982
19129.8 0.00192723
19143.7 0.00174651
19171.5 0.00187215
19199.3 0.00265364
19213.2 0.00351597
19227.1 0.00510616
19234.0 0.00644022
19241.0 0.00845750
19247.9 0.0117111
19254.9 0.0174431
19258.4 0.0221256
19261.8 0.0290209
19265.3 0.0398041
19268.8 0.0580307
19272.3 0.0925593
19274.0 0.122599
19275.7 0.169390
19276.6 0.203499
19277.5 0.248694
19278.3 0.310106
19279.2 0.394810
19280.1 0.518245
19280.9 0.702408
19281.8 0.984966
19282.7 1.41342
19283.3 1.81294
19283.8 2.26166
19285.0 2.82721
19285.6 2.65800
19286.2 2.26131
19287.3 1.41309
19288.7 0.823265
19290.0 0.514668
19291.3 0.345762
19292.6 0.246213
19293.9 0.183477
19295.2 0.141694
19297.8 0.0915537
19300.4 0.0639152
19303.1 0.0471401
19308.3 0.0287244
19313.5 0.0193955
19318.8 0.0140373
19324.0 0.0106837
19329.3 0.00845308
19339.7 0.00576135
19350.2 0.00427471
19371.2 0.00280887
19392.1 0.00218531
19413.1 0.00192862
19455.0 0.00200405
19475.9 0.00230306
19496.9 0.00285109
19517.8 0.00382272
19538.8 0.00564645
19549.3 0.00719359
19559.7 0.00955392
19570.2 0.0134021
19580.7 0.0202855
19585.9 0.0259771
19591.2 0.0344982
19596.4 0.0480814
19601.6 0.0716183
19606.9 0.118012
19609.5 0.160155
19612.1 0.229393
19614.7 0.354470
19616.1 0.458250
19617.4 0.613395
19618.7 0.858103
19620.0 1.26975
19621.3 2.01239
19622.6 3.39314
19623.8 5.44379
19625.0 6.79757
19626.2 5.42449
19627.4 3.39234
19628.3 2.33099
19629.3 1.64957
19630.2 1.21005
19631.1 0.920417
19632.9 0.574527
19634.8 0.390453
19636.6 0.281153
19638.4 0.212031
19642.1 0.132483
19645.8 0.0904854
19649.4 0.0657058
19653.1 0.0498938
19656.8 0.0392012
19664.1 0.0261031
19671.5 0.0187122
19678.8 0.0141634
19686.1 0.0111997
19700.8 0.00788375
19715.5 0.00687217
19730.2 0.0111144
19737.5 0.0320999
19741.2 0.113620
19742.1 0.194553
19743.0 0.408280
19743.5 0.685535
19743.9 1.38291
19744.2 2.21196
19744.4 4.06435
19744.5 6.08207
19744.6 9.50430
19744.7 12.6220
19744.7 16.4013
19744.8 23.1773
19744.8 31.5511
19744.9 50.4808
19745.0 63.1006
19745.1 50.4803
19745.2 31.5509
19745.3 18.3371
19745.3 12.0121
19745.4 8.34180
19745.5 6.08211
19745.7 3.60757
19745.8 2.37236
19746.1 1.24303
19746.5 0.761910
19747.1 0.367027
19747.7 0.217260
19749.0 0.102086
19750.3 0.0599686
19752.9 0.0285698
19755.5 0.0172996
19760.6 0.00899754
19765.8 0.00596990
19776.0 0.00364080
19786.3 0.00270670
19806.9 0.00188934
19827.5 0.00152908
19868.7 0.00148575
19889.3 0.00274459
19899.6 0.00800091
19904.7 0.0284081
19907.3 0.104276
19907.9 0.178549
19908.6 0.369283
19908.9 0.605245
19909.2 1.16403
19909.4 1.78137
19909.5 3.03312
19909.7 6.09185
19909.8 9.41591
19909.8 15.8300
19909.9 25.0207
19910.0 31.5588
19910.1 25.0205
19910.2 15.7291
19910.2 9.41590
19910.3 5.79507
19910.4 3.84823
19910.5 2.71672
19910.7 1.54489
19910.9 1.01245
19911.2 0.520139
19911.6 0.315355
19912.3 0.151526
19913.0 0.0888924
19915.8 0.0241221
19921.4 0.00688731
19932.6 0.00247583
19955.1 0.00153797
20000.0 0.00440413
20014.9 0.0156070
20018.6 0.0270223
20022.3 0.0586276
20024.2 0.101368
20026.0 0.216787
20026.9 0.367038
20027.4 0.510542
20027.9 0.750678
20028.3 1.22281
20028.6 1.63265
20028.8 2.28442
20029.0 3.40674
20029.3 5.55923
20029.4 7.53486
20029.5 10.3314
20029.6 15.2488
20029.7 23.1702
20029.9 36.6528
20030.0 46.2572
20030.1 36.6521
20030.3 23.0852
20030.4 15.7843
20030.5 10.9875
20030.6 7.95771
20030.7 5.97701
20030.9 3.68232
20031.2 2.47658
20031.4 1.77323
20031.6 1.32973
20032.0 0.825125
20032.5 0.560744
20032.9 0.405505
20033.8 0.241389
20034.7 0.159283
20035.5 0.113363
20037.3 0.0656880
20040.8 0.0302457
20044.3 0.0174484
20051.3 0.00812113
20058.3 0.00480465
20072.3 0.00241481
20086.3 0.00158113
20114.3 0.00102862
20142.3 0.000945089
20170.3 0.00115697
20198.3 0.00202239
20212.3 0.00329126
20226.3 0.00689773
20233.3 0.0118426
20236.8 0.0167105
20240.3 0.0254505
20243.8 0.0435799
20245.6 0.0610138
20247.3 0.0915151
20249.1 0.152244
20249.9 0.208501
20250.8 0.301109
20251.7 0.473956
20252.1 0.620958
20252.6 0.839851
20253.0 1.20302
20253.4 1.84274
20253.9 3.07682
20254.1 4.11896
20254.3 5.53005
20254.7 8.81109
20255.0 10.9830
20255.4 8.71073
20255.7 5.45182
20256.0 3.59750
20256.3 2.46616
20256.6 1.76687
20256.9 1.32902
20257.5 0.809098
20258.1 0.543533
20258.7 0.386939
20259.3 0.290300
20260.5 0.179666
20261.7 0.121925
20262.9 0.0881024
20265.2 0.0521471
20267.6 0.0344566
20270.0 0.0244738
20274.8 0.0142079
20279.5 0.00930681
20284.3 0.00659186
20293.8 0.00384545
20312.8 0.00183681
20331.9 0.00111767
20369.9 0.000589528
20408.0 0.000396430
20484.1 0.000249952
20560.2 0.000196590
20712.5 0.000194345
20788.6 0.000361756
20826.7 0.00106091
20845.7 0.00382571
20855.3 0.0145820
20857.6 0.0254180
20860.0 0.0552352
20861.2 0.0950014
20862.4 0.200357
20863.0 0.335815
20863.6 0.663376
20863.9 1.04860
20864.2 1.84287
20864.3 2.64555
20864.5 4.06404
20864.6 6.81031
20864.8 11.9419
20864.9 19.1074
20865.0 23.8844
20865.1 19.1071
20865.2 11.9417
20865.3 8.59796
20865.4 6.56020
20865.5 3.93954
20865.7 2.57768
20865.8 1.80259
20866.1 1.01372
20866.4 0.645610
20867.0 0.326175
20867.6 0.197370
20868.8 0.0940299
20870.0 0.0548089
20872.4 0.0252895
20874.8 0.0145290
20884.3 0.00382105
20903.3 0.00106082
20941.4 0.000362559
21017.6 0.000203687
21093.7 0.000267335
21131.8 0.000631758
21150.9 0.00209209
21160.4 0.00785596
21165.1 0.0302972
21167.5 0.115340
21168.7 0.420690
21169.0 0.707558
21169.3 1.42689
21169.5 2.27871
21169.6 4.17138
21169.7 6.27978
21169.8 9.66314
21169.8 16.2802
21169.9 31.1067
21170.0 50.9112
21170.0 61.9251
21170.1 50.9111
21170.1 30.8186
21170.2 19.2596
21170.2 12.8578
21170.3 6.27984
21170.4 3.64275
21170.5 2.36069
21170.8 1.21479
21171.0 0.736411
21171.9 0.206309
21173.6 0.0547072
21177.1 0.0142188
21184.2 0.00371903
21198.2 0.00104646
21226.3 0.000378036
21282.5 0.000234540
21338.7 0.000313273
21366.8 0.000699321
21380.8 0.00221857
21387.9 0.00816094
21391.4 0.0309922
21393.1 0.115924
21394.0 0.409181
21394.5 1.28726
21394.7 3.32953
21394.8 6.60421
21394.8 9.66965
21394.9 15.5604
21394.9 24.3099
21395.0 30.9853
21395.1 24.3098
21395.1 15.4251
21395.2 8.92602
21395.3 5.37270
21395.4 2.57918
21395.6 0.961185
21396.2 0.294136
21397.2 0.0824084
21399.3 0.0218542
21403.5 0.00577344
21412.0 0.00162145
21428.8 0.000577695
21462.5 0.000361312
21496.2 0.000512525
21513.1 0.00121496
21521.5 0.00396486
21525.7 0.0146425
21527.8 0.0552835
21528.9 0.200521
21529.4 0.677714
21529.6 1.92114
21529.8 4.29298
21529.8 7.65899
21529.9 14.4668
21530.0 22.7596
21530.0 28.9335
21530.1 22.7595
21530.1 14.4668
21530.2 6.99593
21530.2 3.99104
21530.4 1.73610
21530.7 0.599758
21531.2 0.175487
21532.4 0.0481024
21534.6 0.0127954
21539.1 0.00350534
21548.2 0.00113392
21566.3 0.000570398
21602.5 0.000587962
21638.7 0.00135454
21656.8 0.00435412
21665.8 0.0160628
21670.3 0.0610511
21671.5 0.105877
21672.6 0.227515
21673.2 0.388954
21673.7 0.797705
21674.0 1.32122
21674.3 2.51513
21674.4 3.81233
21674.6 6.38550
21674.6 8.70701
21674.7 12.4233
21674.8 18.6787
21674.9 29.4293
21674.9 48.3331
21675.0 58.8591
21675.1 45.8241
21675.2 29.4291
21675.2 18.6786
21675.3 12.4233
21675.4 8.70707
21675.4 6.65844
21675.6 3.94056
21675.7 2.65642
21676.0 1.40312
21676.2 0.862923
21676.8 0.420110
21677.3 0.249698
21678.4 0.116796
21679.4 0.0675210
21683.7 0.0178388
21692.3 0.00488099
21709.4 0.00161149
21743.7 0.000905138
21812.1 0.00129797
21846.4 0.00208122
21863.5 0.00286483
21880.6 0.00428354
21897.8 0.00728421
21906.3 0.0102439
21914.9 0.0155968
21923.5 0.0268796
21927.7 0.0379482
21932.0 0.0577814
21934.2 0.0742017
21936.3 0.0988485
21938.4 0.138290
21940.6 0.207220
21942.7 0.344260
21943.8 0.470114
21944.9 0.679360
21945.9 1.06425
21946.5 1.39335
21947.0 1.88537
21947.5 2.69758
21948.1 4.08936
21948.6 6.79516
21948.9 9.06779
21949.1 12.1651
21949.6 19.4870
21950.0 24.1937
21950.4 19.3090
21950.9 12.0260
21951.4 7.15593
21951.8 4.58257
21952.3 3.12971
21952.7 2.25412
21953.2 1.69337
21953.7 1.31541
21954.6 0.856314
21955.5 0.598076
21956.4 0.442134
21958.3 0.269477
21960.1 0.180930
21962.0 0.130121
21963.8 0.0981596
21965.6 0.0767713
21969.3 0.0507954
21973.0 0.0362993
21980.4 0.0216353
21987.8 0.0148441
21995.1 0.0113138
22009.9 0.00855520
22024.6 0.00920129
22032.0 0.0110903
22039.4 0.0150924
22043.1 0.0186178
22046.8 0.0240605
22050.5 0.0329712
22054.1 0.0488291
22056.0 0.0619159
22057.8 0.0812502
22059.7 0.111887
22061.5 0.163900
22063.4 0.264052
22064.3 0.351897
22065.2 0.491460
22066.1 0.731342
22067.0 1.18983
22067.5 1.58749
22068.0 2.19890
22068.4 3.17409
22068.9 4.74375
22069.4 7.58607
22070.0 9.47927
22070.6 7.58537
22071.1 4.74325
22071.6 3.09492
22072.1 2.10241
22072.6 1.49615
22073.1 1.11594
22074.1 0.675513
22075.0 0.451304
22076.0 0.320845
22077.0 0.240159
22078.9 0.148866
22080.9 0.101083
22082.8 0.0731692
22084.8 0.0554717
22086.7 0.0436045
22090.6 0.0290235
22094.5 0.0208092
22098.4 0.0157017
22102.3 0.0123224
22110.1 0.00824324
22117.9 0.00596320
22125.7 0.00455441
22133.4 0.00362044
22149.0 0.00248764
22164.6 0.00184819
22195.7 0.00118049
22226.9 0.000853571
22258.0 0.000670347
22320.3 0.000495956
22444.9 0.000581679
22507.2 0.00149369
22522.8 0.00245609
22538.4 0.00518116
22546.2 0.00894552
22554.0 0.0194608
22557.9 0.0337840
22559.8 0.0478285
22561.8 0.0727714
22563.7 0.124355
22564.7 0.173280
22565.6 0.257895
22566.6 0.425825
22567.1 0.578462
22567.6 0.822710
22568.1 1.27004
22568.3 1.63128
22568.6 2.16500
22568.8 3.03776
22569.1 4.43408
22569.3 6.89131
22569.5 11.5436
22569.8 18.5063
22570.0 23.0636
22570.2 18.5057
22570.5 11.5183
22570.7 7.61691
22570.9 5.19084
22571.1 3.70162
22571.3 2.74877
22571.7 1.66803
22572.1 1.11141
22572.5 0.790812
22572.9 0.590402
22573.7 0.364232
22574.5 0.246633
22575.3 0.177917
22576.9 0.105031
22578.5 0.0692471
22580.1 0.0490825
22583.3 0.0284166
22586.5 0.0185246
22589.6 0.0130670
22596.0 0.00753907
22608.8 0.00351615
22621.6 0.00209033
22647.2 0.00106544
22672.7 0.000709938
22723.9 0.000475557
22775.0 0.000435968
22877.3 0.000789660
22928.4 0.00237262
22941.2 0.00399636
22954.0 0.00856223
22960.4 0.0148336
22966.7 0.0322352
22969.9 0.0557552
22971.5 0.0786564
22973.1 0.118948
22974.7 0.201286
22975.5 0.278806
22976.3 0.411264
22977.1 0.665387
22977.5 0.889971
22977.9 1.24823
22978.3 1.86766
22978.7 3.06249
22978.9 4.10858
22979.1 5.73183
22979.3 8.35100
22979.5 12.5140
22979.8 19.9092
22980.0 25.0029
22980.2 19.9086
22980.5 12.4872
22980.7 8.35080
22980.9 5.83455
22981.1 4.17347
22981.3 3.14888
22981.6 1.93136
22982.0 1.29540
22982.4 0.925814
22982.8 0.693366
22983.6 0.429527
22984.4 0.291601
22985.2 0.210730
22986.7 0.124686
22988.3 0.0823219
22989.8 0.0584076
22992.9 0.0338629
22996.1 0.0220972
22999.2 0.0156014
23005.4 0.00901815
23017.9 0.00422788
23030.3 0.00253428
23055.3 0.00132863
23080.2 0.000927003
23130.0 0.000759019
23155.0 0.00107160
23167.4 0.00241789
23173.7 0.00770079
23176.8 0.0280598
23178.3 0.103591
23179.1 0.363581
23179.5 1.13813
23179.7 2.84074
23179.8 5.66495
23179.9 13.9056
23180.0 22.2834
23180.0 27.7013
23180.1 22.2833
23180.1 13.9056
23180.2 6.14126
23180.3 3.21226
23180.5 1.28426
23180.8 0.428031
23181.5 0.123354
23182.9 0.0337618
23185.8 0.00920879
23191.4 0.00281974
23202.7 0.00119876
23225.3 0.000829755
23270.6 0.000879200
23315.8 0.00114049
23361.1 0.00166387
23383.7 0.00211279
23406.3 0.00280123
23428.9 0.00393074
23451.5 0.00597354
23462.9 0.00767956
23474.2 0.0102622
23485.5 0.0144442
23496.8 0.0218824
23502.4 0.0280002
23508.1 0.0370970
23513.8 0.0515302
23519.4 0.0763317
23525.1 0.124573
23527.9 0.167782
23530.7 0.237386
23533.5 0.360600
23536.4 0.605034
23537.8 0.828179
23539.2 1.18469
23540.6 1.78784
23542.0 2.83125
23543.5 4.54005
23545.0 5.67025
23546.5 4.52686
23548.0 2.83058
23549.0 2.01562
23550.1 1.46863
23551.1 1.10180
23552.1 0.852233
23554.2 0.544873
23556.2 0.375960
23558.3 0.273620
23560.3 0.207917
23564.4 0.131405
23568.5 0.0903542
23572.6 0.0659848
23580.8 0.0396902
23589.1 0.0266204
23597.3 0.0192616
23605.5 0.0147675
23613.7 0.0119003
23630.1 0.00900644
23638.3 0.00866442
23646.5 0.00927676
23654.8 0.0117864
23663.0 0.0201425
23667.1 0.0319489
23669.1 0.0435251
23671.2 0.0641109
23673.2 0.106300
23674.3 0.146114
23675.3 0.213388
23676.3 0.343494
23676.8 0.457157
23677.3 0.637577
23677.9 0.955501
23678.4 1.55529
23678.6 2.08886
23678.9 2.87885
23679.1 4.19426
23679.4 6.27736
23679.7 10.0117
23680.0 12.5426
23680.3 10.0112
23680.6 6.26688
23680.9 4.19407
23681.1 2.87872
23681.4 2.06377
23681.7 1.53872
23682.2 0.939198
23682.7 0.632915
23683.2 0.451484
23683.7 0.339670
23684.7 0.211293
23685.8 0.143722
23686.8 0.104570
23688.9 0.0628569
23690.9 0.0422009
23693.0 0.0305792
23697.1 0.0185404
23705.4 0.00949131
23713.6 0.00612726
23730.2 0.00351321
23746.7 0.00246646
23779.7 0.00156804
23812.7 0.00118123
23878.8 0.00104486
23911.8 0.00195114
23928.3 0.00589537
23936.6 0.0214351
23940.7 0.0807261
23941.7 0.139036
23942.8 0.294777
23943.3 0.497570
23943.8 0.994876
23944.1 1.59411
23944.3 2.93830
23944.4 4.33007
23944.6 6.93010
23944.6 9.34005
23944.7 12.4373
23944.8 17.0684
23944.8 25.3209
23944.9 39.5914
23945.0 50.4948
23945.1 39.5911
23945.2 25.1736
23945.2 18.0429
23945.3 13.7754
23945.4 8.54482
23945.5 5.51087
23945.6 3.93446
23945.8 2.21906
23946.0 1.44322
23946.4 0.726467
23946.8 0.440140
23947.7 0.209560
23948.5 0.122170
23950.2 0.0564620
23951.8 0.0326230
23958.4 0.00875875
23971.7 0.00258217
23998.2 0.000990140
24051.1 0.000564595
24157.1 0.000506491
24263.1 0.000893010
24289.6 0.00126987
24316.0 0.00226866
24329.3 0.00359527
24342.5 0.00720847
24349.2 0.0120528
24352.5 0.0167480
24355.8 0.0250598
24359.1 0.0419445
24360.8 0.0578878
24362.4 0.0849457
24364.1 0.137152
24364.9 0.183349
24365.7 0.256004
24366.5 0.382898
24367.4 0.627902
24367.8 0.845786
24368.2 1.17603
24368.6 1.70625
24369.0 2.56611
24369.5 4.09693
24370.0 5.11384
24370.5 4.09664
24371.0 2.56593
24371.4 1.67386
24371.8 1.13671
24372.3 0.808704
24372.7 0.603552
24373.5 0.367121
24374.4 0.245145
24375.2 0.174804
24376.1 0.130792
24377.8 0.0810791
24379.5 0.0552111
24381.2 0.0400914
24384.6 0.0240584
24388.0 0.0161986
24391.4 0.0117836
24398.2 0.00728810
24405.0 0.00519577
24411.8 0.00409269
24425.4 0.00315053
24452.6 0.00368406
24466.2 0.00747122
24473.0 0.0214735
24476.4 0.0731480
24477.3 0.122985
24478.1 0.252913
24478.5 0.417435
24479.0 0.801307
24479.2 1.25425
24479.4 2.15194
24479.5 3.04199
24479.6 4.38548
24479.7 7.01833
24479.8 11.4030
24479.9 18.2431
24480.0 22.8033
24480.1 18.2430
24480.2 11.4029
24480.3 7.01832
24480.4 4.56301
24480.6 2.35301
24480.8 1.40968
24481.0 0.932927
24481.4 0.492867
24481.7 0.303929
24482.5 0.148261
24483.3 0.0888003
24484.8 0.0430677
24486.3 0.0262828
24492.4 0.00976608
24504.7 0.00649838
24516.9 0.00757492
24529.1 0.0107629
24535.2 0.0136016
24541.3 0.0179516
24547.5 0.0250372
24553.6 0.0375886
24556.6 0.0478618
24559.7 0.0630731
24562.8 0.0869503
24565.8 0.127332
24568.9 0.204223
24570.4 0.271451
24571.9 0.376599
24573.4 0.556229
24575.0 0.893618
24575.7 1.18323
24576.5 1.61475
24577.3 2.28490
24578.0 3.33051
24579.0 5.32967
24580.0 6.66241
24581.0 5.32889
24582.0 3.32999
24582.6 2.39750
24583.3 1.76288
24584.6 1.03351
24585.9 0.666154
24587.3 0.461286
24588.6 0.336984
24589.9 0.256417
24592.5 0.162536
24595.2 0.111848
24597.8 0.0816027
24603.1 0.0489476
24608.4 0.0325900
24613.6 0.0232838
24618.9 0.0174810
24624.2 0.0136208
24634.7 0.00896242
24645.3 0.00636813
24655.8 0.00477648
24666.4 0.00373100
24687.5 0.00248474
24708.6 0.00180148
24729.6 0.00139003
24750.7 0.00112810
24792.9 0.000853764
24835.1 0.000828645
24877.3 0.00154586
24887.9 0.00236971
24898.4 0.00471524
24903.7 0.00794349
24908.9 0.0168253
24911.6 0.0287027
24914.2 0.0600262
24915.5 0.0999311
24916.2 0.136744
24916.9 0.198249
24917.5 0.312223
24917.8 0.409326
24918.2 0.558426
24918.5 0.802499
24918.8 1.23570
24919.2 2.08201
24919.3 2.78029
24919.5 3.84117
24919.7 6.10395
24920.0 7.67496
24920.3 6.10374
24920.5 3.83354
24920.7 2.83295
24920.8 2.15588
24921.1 1.32893
24921.4 0.884730
24921.7 0.626099
24922.0 0.460160
24922.3 0.354495
24922.9 0.228177
24923.5 0.157905
24924.1 0.116191
24925.3 0.0704060
24926.6 0.0470612
24927.8 0.0336915
24930.2 0.0198005
24935.0 0.00930399
24939.8 0.00547305
24949.5 0.00265761
24959.1 0.00164712
24978.5 0.000906028
24997.8 0.000637240
25036.4 0.000435649
25075.0 0.000362183
25229.5 0.000351923
25306.8 0.000468551
25384.0 0.000830393
25422.7 0.00132881
25442.0 0.00181855
25461.3 0.00269947
25480.6 0.00454664
25490.3 0.00635415
25499.9 0.00959020
25504.7 0.0122781
25509.6 0.0163282
25514.4 0.0228521
25519.2 0.0343472
25521.6 0.0437707
25524.0 0.0576702
25526.5 0.0796113
25528.9 0.116827
25531.3 0.188224
25532.5 0.251122
25533.7 0.350074
25534.9 0.521306
25536.1 0.844867
25536.7 1.12971
25537.3 1.55990
25537.9 2.24201
25538.5 3.33206
25539.3 5.32283
25540.0 6.64641
25540.7 5.32231
25541.5 3.33177
25542.0 2.32969
25542.6 1.68173
25543.1 1.25270
25543.6 0.961421
25544.7 0.608091
25545.7 0.417426
25546.8 0.302419
25547.9 0.229400
25550.0 0.144821
25552.1 0.0996142
25554.3 0.0728695
25558.5 0.0443179
25562.8 0.0302862
25567.0 0.0225736
25571.3 0.0180794
25575.5 0.0155048
25584.0 0.0143359
25592.5 0.0201302
25596.8 0.0303452
25601.0 0.0597710
25603.2 0.0994869
25604.2 0.137510
25605.3 0.203787
25606.4 0.336612
25606.9 0.457212
25607.4 0.656581
25608.0 1.02013
25608.2 1.33170
25608.5 1.78461
25608.8 2.53789
25609.0 3.78236
25609.3 6.19074
25609.5 10.8784
25609.8 17.3121
25610.0 21.7548
25610.2 17.3116
25610.5 10.8780
25610.7 6.70884
25610.9 4.33763
25611.1 2.98028
25611.4 2.15514
25611.6 1.62366
25611.8 1.26400
25612.3 0.825484
25612.8 0.579986
25613.2 0.429429
25614.1 0.263764
25615.0 0.177830
25616.0 0.128601
25617.8 0.0764002
25619.6 0.0509116
25621.4 0.0365752
25625.1 0.0218328
25628.8 0.0147569
25632.4 0.0107977
25639.7 0.00670944
25647.1 0.00471123
25654.4 0.00356830
25669.0 0.00234556
25698.3 0.00135138
25727.6 0.000949658
25786.2 0.000647503
25844.8 0.000597397
25961.9 0.00126686
25991.2 0.00204950
26020.5 0.00426770
26035.1 0.00731990
26042.5 0.0103395
26049.8 0.0158019
26057.1 0.0272842
26060.8 0.0384956
26064.4 0.0584583
26066.2 0.0748747
26068.1 0.0993472
26069.9 0.138139
26071.7 0.204995
26073.6 0.335007
26074.5 0.452385
26075.4 0.640482
26076.3 0.977173
26077.2 1.64357
26077.7 2.25699
26078.1 3.25179
26078.6 4.95535
26079.1 7.85883
26079.5 12.6278
26080.0 15.7190
26080.5 12.5212
26081.0 7.85834
26081.4 5.05331
26081.8 3.42413
26082.2 2.41432
26082.7 1.79002
26083.5 1.07874
26084.4 0.715821
26085.2 0.508000
26086.1 0.378592
26087.8 0.233082
26089.5 0.157681
26091.2 0.113719
26092.9 0.0858954
26094.6 0.0671890
26098.0 0.0443962
26101.4 0.0315789
26108.1 0.0184768
26114.9 0.0122753
26121.7 0.00890889
26135.3 0.00575063
26162.5 0.00608722
26176.1 0.0168071
26182.9 0.0595000
26184.6 0.101704
26186.3 0.214601
26187.2 0.359693
26187.6 0.496836
26188.0 0.722912
26188.4 1.15938
26188.7 1.52941
26188.9 2.10443
26189.1 3.06184
26189.3 4.80492
26189.4 6.32577
26189.5 8.34908
26189.6 11.6917
26189.7 16.2381
26189.9 25.9808
26190.0 32.4759
26190.2 25.9803
26190.3 16.2378
26190.4 11.6915
26190.5 8.85479
26190.7 5.42443
26190.9 3.59825
26191.0 2.54063
26191.2 1.88182
26191.4 1.44658
26191.8 0.928332
26192.1 0.644705
26192.5 0.473335
26193.2 0.285928
26193.9 0.190317
26194.6 0.136400
26196.1 0.0800587
26199.0 0.0374206
26201.9 0.0218545
26207.6 0.0103935
26213.4 0.00626112
26225.0 0.00319511
26236.5 0.00205866
26259.6 0.00116984
26282.7 0.000811287
26328.9 0.000505686
26375.2 0.000374365
26467.6 0.000265938
26560.0 0.000233635
26744.9 0.000310149
26837.3 0.000626397
26883.5 0.00169697
26906.6 0.00571200
26918.1 0.0211218
26921.0 0.0365958
26923.9 0.0790455
26925.4 0.135746
26926.8 0.284112
26927.5 0.470730
26927.9 0.641311
26928.3 0.923477
26928.6 1.43855
26928.8 1.87062
26929.0 2.52375
26929.2 3.57002
26929.3 5.37020
26929.5 8.72985
26929.6 11.4868
26929.7 15.5574
26929.9 25.0869
26930.0 31.1152
26930.2 25.0865
26930.3 15.5571
26930.4 11.1312
26930.5 8.00321
26930.6 5.93944
26930.7 4.65029
26931.0 2.92505
26931.2 2.02466
26931.4 1.45855
26931.6 1.11168
26932.0 0.705239
26932.4 0.482237
26932.9 0.350195
26933.7 0.209592
26935.4 0.0989819
26937.1 0.0576944
26940.5 0.0267060
26944.0 0.0154792
26950.8 0.00728823
26957.6 0.00439746
26984.9 0.00170498
27039.5 0.00175400
27066.8 0.00273560
27094.1 0.00568206
27107.7 0.00975694
27114.6 0.0137793
27121.4 0.0209978
27124.8 0.0270055
27128.2 0.0360138
27131.6 0.0504527
27135.0 0.0757382
27138.4 0.126159
27140.1 0.172780
27141.8 0.250096
27143.6 0.393945
27144.4 0.515563
27145.3 0.701650
27146.1 1.00942
27147.0 1.54765
27147.8 2.58997
27148.2 3.48736
27148.7 4.74864
27149.3 7.58670
27150.0 9.47377
27150.7 7.58604
27151.3 4.74820
27151.9 3.24732
27152.4 2.28878
27152.9 1.67363
27153.4 1.27273
27154.4 0.794580
27155.5 0.539002
27156.5 0.388215
27157.5 0.292375
27159.6 0.182489
27161.7 0.124281
27163.7 0.0901415
27165.8 0.0683459
27167.8 0.0535969
27172.0 0.0354696
27176.1 0.0252308
27180.2 0.0188631
27184.3 0.0146542
27192.6 0.00959219
27200.8 0.00678451
27217.3 0.00394104
27233.8 0.00260296
27250.3 0.00186920
27283.3 0.00113586
27316.3 0.000798746
27349.3 0.000621412
27415.3 0.000469677
27547.3 0.000588001
27613.3 0.00137495
27646.3 0.00431134
27654.6 0.00724643
27662.8 0.0153450
27667.0 0.0262414
27671.1 0.0554068
27673.2 0.0933162
27674.2 0.128684
27675.2 0.188729
27676.3 0.302789
27676.8 0.403737
27677.3 0.559927
27677.8 0.831218
27678.3 1.33190
27678.6 1.76732
27678.8 2.42923
27679.1 3.46868
27679.3 5.03133
27679.7 8.05021
27680.0 10.0628
27680.3 8.04990
27680.7 5.03114
27681.0 3.01115
27681.4 1.91832
27681.7 1.30498
27682.1 0.937145
27682.4 0.702465
27682.8 0.544754
27683.5 0.355766
27684.2 0.248756
27684.9 0.183496
27686.2 0.111884
27687.6 0.0751087
27689.0 0.0540489
27691.8 0.0318707
27697.4 0.0150806
27703.0 0.00894785
27714.1 0.00448480
27725.3 0.00295088
27747.6 0.00203418
27769.9 0.00208613
27792.2 0.00287442
27814.6 0.00547040
27825.7 0.00910001
27831.3 0.0126917
27836.9 0.0191753
27842.5 0.0327549
27845.2 0.0459633
27848.0 0.0693836
27850.8 0.117041
27852.2 0.162140
27853.6 0.238701
27855.0 0.386909
27855.7 0.518387
27856.4 0.725095
27857.1 1.08799
27857.8 1.77807
27858.1 2.39103
27858.5 3.34648
27858.8 4.89718
27859.2 7.36052
27859.6 11.7713
27860.0 14.7214
27860.4 11.7707
27860.8 7.36016
27861.2 4.67805
27861.6 3.08709
27862.0 2.15119
27862.4 1.58294
27863.1 0.944081
27863.9 0.622630
27864.7 0.440160
27865.4 0.327209
27867.0 0.200911
27868.5 0.135810
27870.1 0.0979855
27871.6 0.0741079
27873.1 0.0580882
27876.2 0.0386202
27879.3 0.0277141
27885.5 0.0166354
27891.6 0.0115003
27897.8 0.00882695
27910.1 0.00675920
27922.4 0.00732655
27934.7 0.0120845
27940.9 0.0193739
27947.1 0.0399132
27950.1 0.0674447
27951.7 0.0939530
27953.2 0.140344
27954.8 0.232698
27955.5 0.317604
27956.3 0.458910
27957.1 0.719193
27957.5 0.943032
27957.8 1.27570
27958.2 1.83009
27958.6 2.77561
27959.0 4.56929
27959.2 6.06356
27959.4 8.25028
27959.7 13.2426
27960.0 16.5004
27960.3 13.2421
27960.6 8.24994
27961.0 4.70247
27961.4 2.91295
27961.7 1.94526
27962.1 1.37944
27962.4 1.02477
27962.8 0.789460
27963.5 0.508135
27964.2 0.353595
27965.0 0.259999
27966.4 0.157426
27967.8 0.105256
27969.3 0.0755443
27972.2 0.0444757
27975.1 0.0293707
27977.9 0.0209524
27983.7 0.0123301
27989.5 0.00822446
27995.2 0.00594516
28006.8 0.00362061
28029.8 0.00188034
28052.9 0.00123142
28099.1 0.000737809
28145.2 0.000564326
28191.3 0.000507954
28237.5 0.000544441
28283.6 0.000900537
28306.7 0.00230629
28318.2 0.00776082
28324.0 0.0285530
28326.9 0.103924
28327.6 0.174611
28328.3 0.352250
28328.7 0.563327
28329.0 1.03515
28329.2 1.52174
28329.4 2.42665
28329.6 4.33033
28329.7 6.08572
28329.8 8.79565
28329.9 14.0730
28330.0 17.5912
28330.1 14.0728
28330.2 8.79555
28330.3 6.08568
28330.4 4.33031
28330.6 2.42667
28330.8 1.52176
28331.0 1.03517
28331.3 0.563350
28331.7 0.356410
28332.4 0.177538
28333.1 0.105948
28334.5 0.0499234
28335.9 0.0291405
28341.6 0.00795237
28353.0 0.00240239
28375.8 0.00101278
28398.6 0.000795689
28421.4 0.000767659
28467.0 0.000902876
28512.5 0.00125638
28535.3 0.00156884
28558.1 0.00204996
28580.9 0.00283755
28603.7 0.00424972
28615.1 0.00541830
28626.5 0.00716682
28637.9 0.00995755
28649.3 0.0148037
28660.7 0.0243616
28672.1 0.0473348
28674.9 0.0582016
28677.8 0.0732225
28680.6 0.0947549
28683.5 0.126885
28684.9 0.149372
28686.3 0.177868
28687.7 0.215123
28689.2 0.264024
28690.6 0.330343
28692.0 0.420502
28693.4 0.545029
28694.8 0.715724
28696.1 0.916259
28697.4 1.14553
28700.0 1.43215
28701.3 1.34771
28702.6 1.14526
28705.2 0.715471
28706.8 0.518909
28708.5 0.383923
28711.9 0.227396
28715.2 0.147357
28718.6 0.102510
28721.9 0.0750733
28725.3 0.0572783
28732.0 0.0363762
28738.7 0.0251087
28745.4 0.0183701
28758.8 0.0110729
28772.3 0.00742455
28785.7 0.00534911
28799.1 0.00406219
28812.5 0.00321618
28839.4 0.00223807
28866.2 0.00183214
28879.6 0.00187141
28893.0 0.00237919
28906.5 0.00578275
28913.2 0.0195126
28916.5 0.0719553
28918.2 0.263689
28919.0 0.902670
28919.2 1.45159
28919.5 2.69216
28919.6 4.06949
28919.7 6.42400
28919.8 11.2759
28919.8 15.6609
28919.9 22.6482
28919.9 35.9497
28920.0 45.1327
28920.1 35.9495
28920.1 22.4852
28920.2 12.8108
28920.3 7.93004
28920.5 3.60688
28920.6 2.01998
28920.8 1.31429
28921.1 0.668920
28921.5 0.403481
28922.8 0.112699
28925.4 0.0302838
28930.7 0.00842939
28941.3 0.00276496
28962.5 0.00126795
28983.7 0.000970678
29004.9 0.000899536
29026.1 0.000984923
29047.3 0.00142245
29068.5 0.00402148
29079.1 0.0141602
29081.7 0.0242815
29084.4 0.0517562
29085.7 0.0879558
29087.0 0.180567
29087.7 0.293822
29088.3 0.557506
29088.7 0.842846
29089.0 1.40597
29089.2 1.93035
29089.3 2.71547
29089.5 4.11172
29089.6 6.34512
29089.8 10.1522
29090.0 12.6902
29090.2 10.1520
29090.4 6.34500
29090.5 4.00651
29090.7 2.65455
29090.9 1.85547
29091.0 1.38178
29091.4 0.831330
29091.7 0.551236
29092.4 0.291400
29093.0 0.179397
29094.3 0.0871569
29095.7 0.0515702
29098.3 0.0242093
29101.0 0.0141371
29111.5 0.00397218
29132.7 0.00131176
29175.0 0.000624220
29217.4 0.000512027
29259.7 0.000521672
29302.0 0.000641831
29344.3 0.00105201
29365.5 0.00163708
29386.7 0.00328687
29397.3 0.00554475
29407.8 0.0117624
29413.1 0.0200618
29415.8 0.0280779
29418.4 0.0420813
29421.1 0.0701827
29422.4 0.0960483
29423.7 0.139280
29425.0 0.220296
29425.7 0.289075
29426.4 0.394881
29427.0 0.568551
29427.7 0.878073
29428.3 1.48686
29428.7 2.01172
29429.0 2.77716
29429.5 4.46388
29430.0 5.56008
29430.5 4.42835
29431.0 2.77699
29431.6 1.61054
29432.1 1.01126
29432.7 0.677034
29433.3 0.483515
29433.8 0.359282
29434.4 0.277992
29435.5 0.180007
29436.7 0.125377
29437.8 0.0922359
29440.0 0.0559765
29442.3 0.0375025
29444.5 0.0269266
29449.1 0.0158373
29453.6 0.0104640
29458.1 0.00746128
29467.1 0.00440125
29485.1 0.00215861
29503.2 0.00136368
29539.2 0.000809103
29575.3 0.000652130
29647.5 0.000833109
29683.5 0.00189651
29701.6 0.00593575
29706.1 0.00998813
29710.6 0.0211605
29712.9 0.0361758
29715.1 0.0760855
29716.2 0.127535
29717.4 0.254596
29717.9 0.407226
29718.5 0.739047
29718.8 1.07521
29719.0 1.68722
29719.2 2.19216
29719.3 2.93162
29719.5 4.04020
29719.6 5.70156
29719.8 9.12236
29720.0 11.4029
29720.2 9.12218
29720.4 5.70145
29720.5 4.13818
29720.7 3.06349
29720.9 1.84684
29721.2 1.21227
29721.4 0.849876
29721.9 0.474921
29722.4 0.303865
29723.4 0.153637
29724.4 0.0924569
29726.5 0.0442218
29728.5 0.0259981
29732.5 0.0123365
29736.6 0.00739418
29752.7 0.00259327
29785.0 0.00202224
29817.3 0.00551513
29825.3 0.00928503
29833.4 0.0198687
29837.4 0.0343078
29841.5 0.0736555
29843.5 0.125766
29844.5 0.175559
29845.5 0.262056
29846.5 0.432351
29847.0 0.589012
29847.5 0.841372
29848.0 1.30714
29848.3 1.68679
29848.5 2.25245
29848.8 3.14067
29849.0 4.62594
29849.3 7.28461
29849.5 12.3693
29849.8 19.8632
29850.0 24.7125
29850.2 19.8628
29850.5 12.3424
29850.6 8.90838
29850.8 6.48997
29851.1 3.81199
29851.4 2.46034
29851.7 1.70526
29852.0 1.23489
29852.3 0.941108
29853.0 0.596838
29853.6 0.409048
29854.2 0.298912
29855.5 0.179422
29856.7 0.119163
29858.0 0.0848838
29860.4 0.0494796
29865.4 0.0229147
29870.4 0.0132761
29880.4 0.00622921
29890.4 0.00371791
29910.3 0.00190647
29930.3 0.00127406
29970.2 0.000844939
30010.1 0.000737808
30050.0 0.000757485
30090.0 0.000921200
30129.9 0.00176349
30149.8 0.00493140
30159.8 0.0171612
30164.8 0.0635499
30166.0 0.109298
30167.3 0.230006
30167.9 0.387267
30168.5 0.773279
30168.8 1.22488
30169.2 2.21345
30169.3 3.25162
30169.5 5.01227
30169.5 6.55038
30169.6 8.82545
30169.7 12.2777
30169.8 17.4391
30169.9 27.9148
30170.0 34.7992
30170.1 27.9145
30170.2 17.3603
30170.3 12.2776
30170.4 9.18134
30170.5 5.52292
30170.7 3.62117
30170.8 2.53693
30171.1 1.40539
30171.4 0.899976
30171.9 0.453171
30172.5 0.273994
30173.6 0.130594
30174.8 0.0763051
30177.0 0.0354158
30179.3 0.0206252
30188.3 0.00591656
30206.4 0.00217833
30242.6 0.00135845
30278.9 0.00137550
30315.1 0.00158809
30351.3 0.00196005
30387.5 0.00256591
30423.7 0.00369620
30441.8 0.00519567
30450.8 0.00880398
30455.4 0.0213658
30457.6 0.0675229
30458.7 0.228549
30459.3 0.733013
30459.6 1.94759
30459.7 4.01591
30459.8 6.35095
30459.9 10.9067
30459.9 17.8362
30460.0 21.7238
30460.1 17.8362
30460.1 10.8222
30460.3 4.54388
30460.4 2.34272
30460.6 0.899620
30461.1 0.287315
30462.1 0.0847019
30464.1 0.0264368
30468.1 0.0110428
30476.1 0.00760745
30492.1 0.00818426
30508.1 0.0103440
30516.1 0.0119065
30524.1 0.0139001
30528.1 0.0151042
30532.1 0.0164782
30536.1 0.0180537
30540.1 0.0198651
30544.1 0.0219707
30548.0 0.0244221
30552.0 0.0273103
30556.0 0.0307214
30560.0 0.0348019
30564.0 0.0397116
30568.0 0.0456667
30572.0 0.0529249
30576.0 0.0618735
30580.0 0.0728942
30588.0 0.103156
30593.5 0.131315
30599.0 0.163527
30610.0 0.204795
30615.5 0.194545
30621.0 0.168506
30632.0 0.115015
30643.5 0.0879520
30649.2 0.0872205
30654.9 0.0983320
30660.7 0.131893
30663.5 0.166533
30666.4 0.226551
30669.3 0.340986
30670.7 0.439403
30672.1 0.591602
30673.6 0.844843
30675.0 1.29615
30676.4 2.18943
30677.1 2.97028
30677.8 4.09737
30678.9 6.53679
30680.0 8.15946
30681.1 6.53499
30682.2 4.09484
30683.2 2.60428
30684.2 1.73681
30685.2 1.22141
30686.2 0.899389
30688.2 0.542258
30690.2 0.361966
30692.3 0.259280
30694.3 0.195478
30698.3 0.123685
30702.4 0.0862664
30706.4 0.0642302
30714.5 0.0404670
30722.6 0.0283949
30730.6 0.0213372
30746.8 0.0136585
30762.9 0.00968640
30779.1 0.00732000
30811.4 0.00470493
30843.7 0.00334580
30876.0 0.00254870
30940.6 0.00172862
31005.2 0.00143862
31037.5 0.00145704
31069.8 0.00164606
31102.1 0.00220585
31134.4 0.00396461
31150.6 0.00645578
31166.7 0.0134620
31174.8 0.0230099
31178.8 0.0323654
31182.9 0.0490220
31186.9 0.0833477
31188.9 0.116059
31191.0 0.172710
31193.0 0.283714
31194.0 0.384058
31195.0 0.548045
31196.0 0.841931
31196.5 1.08666
31197.0 1.44235
31197.5 2.00858
31198.0 2.92738
31198.5 4.53806
31199.0 7.48507
31199.5 11.9532
31200.0 14.9631
31200.5 11.9526
31201.0 7.47700
31201.3 5.39683
31201.6 3.95163
31202.0 2.97545
31202.3 2.30224
31203.0 1.47788
31203.6 1.02054
31204.3 0.744064
31204.9 0.565333
31206.3 0.357054
31207.6 0.245427
31208.9 0.178912
31211.5 0.107286
31214.2 0.0713677
31216.8 0.0509875
31222.1 0.0298055
31227.3 0.0196047
31232.6 0.0139428
31243.2 0.00819104
31253.7 0.00547361
31264.2 0.00398099
31285.3 0.00248289
31306.4 0.00178930
31327.5 0.00142267
31369.7 0.00111478
31411.8 0.00113100
31432.9 0.00128090
31454.0 0.00161966
31475.1 0.00240483
31485.6 0.00320185
31496.2 0.00465435
31506.7 0.00771409
31512.0 0.0106896
31517.3 0.0159579
31522.5 0.0266392
31525.2 0.0366799
31527.8 0.0536934
31530.5 0.0862351
31531.8 0.114813
31533.1 0.159658
31534.4 0.236838
31535.7 0.383273
31536.4 0.509281
31537.0 0.701461
31537.7 1.00463
31538.4 1.47683
31539.2 2.36433
31540.0 2.94473
31540.8 2.35273
31541.7 1.46778
31542.6 0.868003
31543.5 0.548457
31544.4 0.371107
31545.3 0.266478
31546.2 0.199180
31547.0 0.154568
31548.8 0.100312
31550.6 0.0702069
31552.4 0.0518523
31556.0 0.0316141
31559.6 0.0213153
31563.2 0.0153788
31570.3 0.00915728
31577.5 0.00613226
31584.6 0.00444146
31599.0 0.00271398
31627.6 0.00144235
31656.3 0.000990865
31713.5 0.000687080
31770.8 0.000634200
31828.1 0.000715088
31885.4 0.000994990
31914.1 0.00130697
31942.7 0.00191877
31957.0 0.00247371
31971.4 0.00339105
31985.7 0.00508905
31992.8 0.00655111
32000.0 0.00884262
32000.0 0.101764
40000.0 0.0857933
50000.0 0.0726231
60000.0 0.0640727
70000.0 0.0578830
80000.0 0.0533518
99999.9 0.0480533
100000 0.0479055
144665 0.0426416
150000 0.0421576
200000 0.0411981
206067 0.0412919
206246 0.0412947
206247 0.0412947
206269 0.0412950
206270 0.0412950
226973 0.0415969
250000 0.0419040
300000 0.0431813
420000 0.0465831
420000 0.0465831
485906 0.0481388
485910 0.0481389
485956 0.0481399
485957 0.0481399
490000 0.0482299
500000 0.0484500
531250 0.0493410
541007 0.0496117
541010 0.0496118
541231 0.0496179
541232 0.0496179
562500 0.0501961
593750 0.0510186
599694 0.0511716
600000 0.0511794
600000 0.0511794
616012 0.0515862
625000 0.0518113
656250 0.0525768
664748 0.0527805
664817 0.0527821
686670 0.0532978
686674 0.0532979
687500 0.0533171
700000 0.0536067
701411 0.0536434
701701 0.0536510
718750 0.0540910
726686 0.0542935
726690 0.0542936
726762 0.0542955
726763 0.0542955
726989 0.0543012
728303 0.0543346
728606 0.0543423
742370 0.0546895
742370 0.0546895
742471 0.0546920
742526 0.0546907
750000 0.0545202
760838 0.0542768
760917 0.0542751
770646 0.0540605
773939 0.0539887
781250 0.0538306
786380 0.0537209
786385 0.0537208
786486 0.0537186
794556 0.0535479
795510 0.0535278
795512 0.0535278
795512 0.0535275
800000 0.0480110
803275 0.0472463
812500 0.0451729
829228 0.0416959
829321 0.0416775
843750 0.0389458
848528 0.0380910
849653 0.0378932
875000 0.0337588
880259 0.0329730
880260 0.0329729
880356 0.0329587
880457 0.0329439
880460 0.0329434
897344 0.0305737
897445 0.0305602
900000 0.0302206
906250 0.0300710
937500 0.0293487
957664 0.0289042
957665 0.0289041
957770 0.0289019
957772 0.0289018
957873 0.0288996
968750 0.0286666
999999 0.0280212
1.00000E+06 0.0280212
1.00334E+06 0.0280421
1.03125E+06 0.0282145
1.03516E+06 0.0282384
1.03520E+06 0.0282386
1.03527E+06 0.0282390
1.03528E+06 0.0282391
1.05014E+06 0.0283291
1.05024E+06 0.0283298
1.06250E+06 0.0284033
1.06781E+06 0.0284350
1.06790E+06 0.0284355
1.06793E+06 0.0284357
1.07026E+06 0.0284495
1.07444E+06 0.0284743
1.08510E+06 0.0285372
1.08511E+06 0.0285372
1.08552E+06 0.0285396
1.09375E+06 0.0285878
1.10000E+06 0.0286243
1.10397E+06 0.0286473
1.10417E+06 0.0286485
1.12500E+06 0.0287683
1.12832E+06 0.0287873
1.12840E+06 0.0287877
1.12842E+06 0.0287878
1.12854E+06 0.0287885
1.12855E+06 0.0287886
1.12863E+06 0.0287890
1.12874E+06 0.0287897
1.14747E+06 0.0288957
1.14757E+06 0.0288963
1.15625E+06 0.0289450
1.15997E+06 0.0289657
1.16056E+06 0.0289690
1.16240E+06 0.0289793
1.18750E+06 0.0291179
1.20000E+06 0.0291861
1.21875E+06 0.0292874
1.23549E+06 0.0293768
1.25000E+06 0.0294535
1.27630E+06 0.0298619
1.28125E+06 0.0299384
1.28180E+06 0.0299469
1.28625E+06 0.0300157
1.29736E+06 0.0301869
1.29797E+06 0.0301962
1.30000E+06 0.0302275
1.31250E+06 0.0304194
1.31599E+06 0.0304728
1.31614E+06 0.0304751
1.32392E+06 0.0305942
1.34375E+06 0.0308965
1.37500E+06 0.0313698
1.38426E+06 0.0315093
1.39062E+06 0.0316050
1.40000E+06 0.0317458
1.40625E+06 0.0318395
1.42417E+06 0.0321072
1.43750E+06 0.0323057
1.44069E+06 0.0323531
1.44085E+06 0.0323554
1.44706E+06 0.0324476
1.44823E+06 0.0323925
1.45226E+06 0.0322037
1.46206E+06 0.0317515
1.46875E+06 0.0314481
1.47807E+06 0.0310325
1.50000E+06 0.0300860
1.50000E+06 0.0300860
1.51345E+06 0.0298314
1.51355E+06 0.0298295
1.52556E+06 0.0296060
1.52566E+06 0.0296041
1.52607E+06 0.0295926
1.52610E+06 0.0295918
1.53125E+06 0.0294478
1.53138E+06 0.0294442
1.55700E+06 0.0287456
1.55718E+06 0.0287408
1.55738E+06 0.0287355
1.56128E+06 0.0286316
1.56250E+06 0.0285993
1.56819E+06 0.0284492
1.56930E+06 0.0284201
1.58139E+06 0.0281062
1.59060E+06 0.0278710
1.59375E+06 0.0277913
1.59645E+06 0.0277233
1.60000E+06 0.0276343
1.62500E+06 0.0270212
1.63724E+06 0.0267293
1.63742E+06 0.0267250
1.64300E+06 0.0265938
1.64310E+06 0.0265914
1.64512E+06 0.0265442
1.64522E+06 0.0265419
1.65625E+06 0.0262864
1.66248E+06 0.0261440
1.66258E+06 0.0261417
1.68750E+06 0.0255849
1.68775E+06 0.0255794
1.70000E+06 0.0253131
1.70089E+06 0.0252939
1.71875E+06 0.0249144
1.72514E+06 0.0247810
1.75000E+06 0.0242731
1.76071E+06 0.0243126
1.76082E+06 0.0243130
1.76122E+06 0.0243145
1.77662E+06 0.0243709
1.78125E+06 0.0243294
1.78140E+06 0.0243280
1.78353E+06 0.0243090
1.78827E+06 0.0242668
1.80000E+06 0.0241631
1.80160E+06 0.0241490
1.81250E+06 0.0240538
1.84375E+06 0.0237859
1.86620E+06 0.0235981
1.87500E+06 0.0235255
1.88390E+06 0.0234526
1.88422E+06 0.0234500
1.88433E+06 0.0234491
1.88916E+06 0.0234098
1.90000E+06 0.0233223
1.90028E+06 0.0233200
1.90625E+06 0.0232518
1.92736E+06 0.0230138
1.92740E+06 0.0230134
1.93750E+06 0.0229013
1.95860E+06 0.0226708
1.96875E+06 0.0225616
1.98040E+06 0.0224376
1.98524E+06 0.0223865
1.98525E+06 0.0223865
1.98566E+06 0.0223827
1.99911E+06 0.0222615
1.99921E+06 0.0222606
2.00000E+06 0.0222535
2.00596E+06 0.0222274
2.01000E+06 0.0221814
2.01000E+06 0.0221814
2.02126E+06 0.0220542
2.03829E+06 0.0218644
2.03830E+06 0.0218643
2.03839E+06 0.0218633
2.05320E+06 0.0213479
2.05353E+06 0.0213366
2.05859E+06 0.0211642
2.05859E+06 0.0211641
2.05902E+06 0.0211496
2.06060E+06 0.0210962
2.06250E+06 0.0210323
2.08961E+06 0.0201463
2.09184E+06 0.0200756
2.09403E+06 0.0200065
2.09450E+06 0.0199917
2.11764E+06 0.0192807
2.12262E+06 0.0191321
2.12500E+06 0.0190615
2.12648E+06 0.0190178
2.12649E+06 0.0190177
2.12659E+06 0.0190146
2.18750E+06 0.0182664
2.20000E+06 0.0181190
2.22903E+06 0.0177845
2.22903E+06 0.0177845
2.22950E+06 0.0177792
2.22964E+06 0.0177776
2.24264E+06 0.0176306
2.24671E+06 0.0175849
2.24671E+06 0.0175849
2.24691E+06 0.0175827
2.25000E+06 0.0175604
2.25800E+06 0.0175029
2.26533E+06 0.0174505
2.26860E+06 0.0174272
2.30660E+06 0.0171616
2.30765E+06 0.0171544
2.31250E+06 0.0171212
2.31864E+06 0.0170792
2.31985E+06 0.0170710
2.35740E+06 0.0168195
2.35744E+06 0.0168192
2.35744E+06 0.0168192
2.35744E+06 0.0168192
2.36362E+06 0.0167742
2.36774E+06 0.0167444
2.36775E+06 0.0167444
2.36785E+06 0.0167436
2.36815E+06 0.0167425
2.37500E+06 0.0167181
2.39520E+06 0.0166467
2.40000E+06 0.0166299
2.41836E+06 0.0165660
2.41870E+06 0.0165648
2.41891E+06 0.0165641
2.42150E+06 0.0165552
2.42972E+06 0.0165268
2.43750E+06 0.0165002
2.43999E+06 0.0164917
2.44473E+06 0.0164755
2.44903E+06 0.0164278
2.44953E+06 0.0164223
2.45162E+06 0.0163992
2.45172E+06 0.0163981
2.45280E+06 0.0163861
2.46405E+06 0.0162629
2.46627E+06 0.0162387
2.47524E+06 0.0161417
2.49494E+06 0.0157959
2.50000E+06 0.0157087
2.50679E+06 0.0155928
2.50709E+06 0.0155877
2.51101E+06 0.0155213
2.52000E+06 0.0153977
2.52000E+06 0.0153977
2.52050E+06 0.0153909
2.52629E+06 0.0153121
2.52781E+06 0.0152915
2.53212E+06 0.0152333
2.54735E+06 0.0149754
2.55473E+06 0.0148526
2.55483E+06 0.0148509
2.55607E+06 0.0148304
2.55790E+06 0.0148104
2.56054E+06 0.0147815
2.56055E+06 0.0147814
2.56092E+06 0.0147774
2.56110E+06 0.0147754
2.56112E+06 0.0147752
2.56250E+06 0.0147602
2.56712E+06 0.0147100
2.58908E+06 0.0144752
2.59437E+06 0.0144195
2.59457E+06 0.0144174
2.60000E+06 0.0143606
2.61615E+06 0.0141936
2.62128E+06 0.0141412
2.62159E+06 0.0141380
2.62500E+06 0.0141034
2.63803E+06 0.0139721
2.63955E+06 0.0139569
2.64107E+06 0.0139417
2.64168E+06 0.0139356
2.64645E+06 0.0138882
2.68750E+06 0.0134902
2.75000E+06 0.0129169
2.76861E+06 0.0127534
2.76923E+06 0.0127480
2.76943E+06 0.0127462
2.78973E+06 0.0125716
2.79029E+06 0.0125668
2.79069E+06 0.0125634
2.79301E+06 0.0125437
2.79783E+06 0.0125029
2.80000E+06 0.0124846
2.81250E+06 0.0123800
2.83530E+06 0.0121926
2.83594E+06 0.0121874
2.85081E+06 0.0120676
2.86636E+06 0.0119443
2.87500E+06 0.0118766
2.87936E+06 0.0118426
2.88098E+06 0.0118300
2.88100E+06 0.0118299
2.90038E+06 0.0116810
2.90103E+06 0.0116761
2.90325E+06 0.0116592
2.93750E+06 0.0114037
2.98688E+06 0.0110502
2.98755E+06 0.0110455
2.99000E+06 0.0110285
2.99000E+06 0.0110284
2.99685E+06 0.0109809
2.99690E+06 0.0109805
2.99695E+06 0.0109802
3.00000E+06 0.0109591
3.03030E+06 0.0108085
3.03120E+06 0.0108041
3.03125E+06 0.0108038
3.03160E+06 0.0108021
3.03190E+06 0.0108007
3.03292E+06 0.0107957
3.04000E+06 0.0107611
3.06250E+06 0.0106524
3.07661E+06 0.0105851
3.09375E+06 0.0105045
3.09632E+06 0.0104925
3.09773E+06 0.0104859
3.12500E+06 0.0103601
3.12520E+06 0.0103592
3.12523E+06 0.0103591
3.15323E+06 0.0102326
3.18750E+06 0.0100815
3.19817E+06 0.0100352
3.21619E+06 0.00995785
3.22371E+06 0.00992588
3.22985E+06 0.00989991
3.25000E+06 0.00981550
3.30646E+06 0.00958547
3.30712E+06 0.00958284
3.37399E+06 0.00932232
3.40452E+06 0.00920741
3.40608E+06 0.00920160
3.41362E+06 0.00917363
3.44087E+06 0.00907375
3.46410E+06 0.00899008
3.50000E+06 0.00886336
3.50000E+06 0.00886336
3.50774E+06 0.00883644
3.53530E+06 0.00874174
3.53610E+06 0.00873901
3.53680E+06 0.00873663
3.53760E+06 0.00873391
3.57462E+06 0.00860962
3.57924E+06 0.00859432
3.58087E+06 0.00858893
3.61959E+06 0.00846268
3.62153E+06 0.00845644
3.64149E+06 0.00839269
3.65927E+06 0.00833659
3.66094E+06 0.00833136
3.66458E+06 0.00831996
3.70837E+06 0.00818500
3.72848E+06 0.00812427
3.72850E+06 0.00812421
3.75000E+06 0.00806015
3.77524E+06 0.00798605
3.84211E+06 0.00779530
3.92105E+06 0.00758005
4.00000E+06 0.00737482
4.02000E+06 0.00730472
4.02000E+06 0.00730471
4.12500E+06 0.00695278
4.21930E+06 0.00665824
4.25000E+06 0.00656644
4.37500E+06 0.00621185
4.45062E+06 0.00601129
4.50000E+06 0.00588560
4.51000E+06 0.00586064
4.51000E+06 0.00586063
4.62500E+06 0.00558474
4.69462E+06 0.00542721
4.75000E+06 0.00530668
4.87500E+06 0.00504916
4.95200E+06 0.00489988
5.00000E+06 0.00481019
5.00000E+06 0.00481019
5.01563E+06 0.00476510
5.02627E+06 0.00473471
5.03125E+06 0.00472059
5.04688E+06 0.00467661
5.05255E+06 0.00466079
5.06250E+06 0.00463320
5.07813E+06 0.00459030
5.07882E+06 0.00458841
5.09375E+06 0.00454795
5.10510E+06 0.00451751
5.10938E+06 0.00450609
5.12500E+06 0.00446477
5.13137E+06 0.00444807
5.14063E+06 0.00442393
5.15625E+06 0.00438361
5.15764E+06 0.00438004
5.17188E+06 0.00434375
5.18392E+06 0.00431338
5.18750E+06 0.00430440
5.20313E+06 0.00426550
5.21019E+06 0.00424808
5.21875E+06 0.00422708
5.23438E+06 0.00418911
5.24457E+06 0.00416459
5.25000E+06 0.00415161
5.26563E+06 0.00411453
5.27895E+06 0.00408327
5.28125E+06 0.00407791
5.29688E+06 0.00404171
5.31250E+06 0.00400595
5.31333E+06 0.00400405
5.32813E+06 0.00397059
5.34375E+06 0.00393567
5.34772E+06 0.00392687
5.35938E+06 0.00390113
5.37500E+06 0.00386702
5.38210E+06 0.00385165
5.39063E+06 0.00383328
5.40625E+06 0.00379995
5.41648E+06 0.00377834
5.42188E+06 0.00376699
5.43750E+06 0.00373443
5.45086E+06 0.00370688
5.45313E+06 0.00370222
5.46875E+06 0.00367040
5.48438E+06 0.00363892
5.48524E+06 0.00363720
5.50000E+06 0.00360782
5.50152E+06 0.00360482
5.51563E+06 0.00357706
5.53125E+06 0.00354666
5.54350E+06 0.00352306
5.54688E+06 0.00351659
5.56250E+06 0.00348687
5.57813E+06 0.00345747
5.58548E+06 0.00344376
5.59375E+06 0.00342841
5.60938E+06 0.00339967
5.62500E+06 0.00337126
5.62746E+06 0.00336681
5.64063E+06 0.00334314
5.65625E+06 0.00331536
5.66944E+06 0.00329214
5.67188E+06 0.00328786
5.68506E+06 0.00326491
5.68750E+06 0.00326069
5.70313E+06 0.00323379
5.71875E+06 0.00320721
5.72443E+06 0.00319762
5.73438E+06 0.00318090
5.75000E+06 0.00315490
5.76380E+06 0.00313217
5.76563E+06 0.00312916
5.78125E+06 0.00310371
5.79688E+06 0.00307853
5.80316E+06 0.00306848
5.81250E+06 0.00305363
5.82813E+06 0.00302898
5.84253E+06 0.00300651
5.84375E+06 0.00300461
5.85938E+06 0.00298049
5.87500E+06 0.00295664
5.88190E+06 0.00294619
5.89063E+06 0.00293303
5.90625E+06 0.00290968
5.92127E+06 0.00288747
5.92188E+06 0.00288657
5.93750E+06 0.00286371
5.95313E+06 0.00284108
5.96063E+06 0.00283030
5.96875E+06 0.00281870
5.98438E+06 0.00279654
6.00000E+06 0.00277463
6.02000E+06 0.00273890
6.02000E+06 0.00273890
6.06250E+06 0.00266487
6.12500E+06 0.00256051
6.12664E+06 0.00255784
6.18750E+06 0.00246123
6.25000E+06 0.00236675
6.25328E+06 0.00236192
6.31250E+06 0.00227678
6.37500E+06 0.00219106
6.39579E+06 0.00216345
6.43750E+06 0.00210936
6.48074E+06 0.00205507
6.50000E+06 0.00203146
6.56250E+06 0.00195713
6.58186E+06 0.00193481
6.62500E+06 0.00188619
6.68298E+06 0.00182326
6.68750E+06 0.00181846
6.75000E+06 0.00175375
6.78409E+06 0.00171967
6.81250E+06 0.00169191
6.87500E+06 0.00163278
6.88521E+06 0.00162337
6.88694E+06 0.00162179
6.88766E+06 0.00162112
6.89675E+06 0.00161282
6.93750E+06 0.00157623
6.99205E+06 0.00152887
7.00000E+06 0.00152212
7.03335E+06 0.00149307
7.04000E+06 0.00148736
7.04000E+06 0.00148736
7.06546E+06 0.00146575
7.07056E+06 0.00146147
7.14112E+06 0.00140379
7.21167E+06 0.00134894
7.23762E+06 0.00132944
7.28223E+06 0.00129673
7.35278E+06 0.00124702
7.42334E+06 0.00119965
7.45347E+06 0.00118011
7.45430E+06 0.00117958
7.45598E+06 0.00117850
7.48331E+06 0.00116115
7.49390E+06 0.00115451
7.53044E+06 0.00113196
7.54412E+06 0.00112366
7.54566E+06 0.00112273
7.54755E+06 0.00112159
7.56445E+06 0.00111147
7.67334E+06 0.00104889
7.71054E+06 0.00102852
7.71191E+06 0.00102778
7.73734E+06 0.00101416
7.78223E+06 0.000990646
7.89064E+06 0.000936610
7.89065E+06 0.000936605
7.89112E+06 0.000936379
8.00000E+06 0.000885772
8.00000E+06 0.000885772
8.09201E+06 0.000849015
8.18403E+06 0.000814170
8.23907E+06 0.000794194
8.27604E+06 0.000781124
8.29411E+06 0.000774836
8.36805E+06 0.000749764
8.37937E+06 0.000746016
8.38459E+06 0.000744297
8.46006E+06 0.000719984
8.47504E+06 0.000715279
8.48528E+06 0.000712085
8.55207E+06 0.000694958
8.58324E+06 0.000687151
8.58822E+06 0.000685915
8.64408E+06 0.000672244
8.70061E+06 0.000658774
8.73003E+06 0.000651905
8.73046E+06 0.000651805
8.73143E+06 0.000651580
8.73609E+06 0.000650502
8.73885E+06 0.000649864
8.76111E+06 0.000644752
8.78336E+06 0.000639692
8.80562E+06 0.000634685
8.82787E+06 0.000629730
8.84981E+06 0.000624895
8.86805E+06 0.000620913
8.87175E+06 0.000620109
8.89369E+06 0.000615371
8.91563E+06 0.000610681
8.93361E+06 0.000606872
8.95021E+06 0.000603385
8.96681E+06 0.000599923
8.98340E+06 0.000596488
8.99000E+06 0.000595130
8.99000E+06 0.000595130
9.00000E+06 0.000593079
9.03003E+06 0.000583411
9.06005E+06 0.000573933
9.09008E+06 0.000564639
9.11963E+06 0.000555669
9.12011E+06 0.000555526
9.15013E+06 0.000546589
9.18016E+06 0.000537824
9.21018E+06 0.000529228
9.23926E+06 0.000521060
9.24021E+06 0.000520796
9.25057E+06 0.000518884
9.25523E+06 0.000518026
9.28581E+06 0.000512447
9.31639E+06 0.000506945
9.32621E+06 0.000505195
9.35889E+06 0.000499427
9.36031E+06 0.000499179
9.39440E+06 0.000493256
9.39472E+06 0.000493201
9.39988E+06 0.000492312
9.40010E+06 0.000492274
9.43931E+06 0.000485593
9.47852E+06 0.000479029
9.48683E+06 0.000477653
9.55576E+06 0.000471848
9.62468E+06 0.000466155
9.62972E+06 0.000465743
9.68488E+06 0.000461272
9.74004E+06 0.000456868
9.74409E+06 0.000456812
9.76036E+06 0.000456586
9.77649E+06 0.000456363
9.78944E+06 0.000456184
9.84274E+06 0.000455452
9.89603E+06 0.000454725
9.89837E+06 0.000454693
9.94919E+06 0.000454004
1.00000E+07 0.000453320
1.00300E+07 0.000459003
1.00300E+07 0.000459007
1.01220E+07 0.000476784
1.02441E+07 0.000501157
1.02500E+07 0.000502369
1.03661E+07 0.000526467
1.04881E+07 0.000552734
1.05000E+07 0.000555348
1.06108E+07 0.000580129
1.07215E+07 0.000605740
1.07500E+07 0.000612468
1.08608E+07 0.000639151
1.10000E+07 0.000673944
1.10371E+07 0.000682737
1.10743E+07 0.000691613
1.11114E+07 0.000700576
1.11485E+07 0.000709622
1.11737E+07 0.000715800
1.11982E+07 0.000721869
1.11988E+07 0.000722018
1.12240E+07 0.000728275
1.12491E+07 0.000734573
1.12791E+07 0.000742138
1.13091E+07 0.000749760
1.13391E+07 0.000757440
1.13691E+07 0.000765178
1.13963E+07 0.000772244
1.13991E+07 0.000772975
1.14291E+07 0.000780830
1.14591E+07 0.000788744
1.14891E+07 0.000796717
1.15000E+07 0.000799628
1.15366E+07 0.000809457
1.15732E+07 0.000819373
1.15945E+07 0.000825203
1.16097E+07 0.000829380
1.16463E+07 0.000839476
1.16829E+07 0.000849664
1.17195E+07 0.000859941
1.17560E+07 0.000870313
1.17926E+07 0.000880773
1.18715E+07 0.000903660
1.19358E+07 0.000922619
1.20000E+07 0.000941868
1.20000E+07 0.000941872
1.20515E+07 0.000946844
1.21029E+07 0.000951822
1.21544E+07 0.000956805
1.22058E+07 0.000961791
1.22500E+07 0.000966076
1.22573E+07 0.000966784
1.23087E+07 0.000971780
1.23602E+07 0.000976782
1.24117E+07 0.000981788
1.24631E+07 0.000986800
1.25000E+07 0.000990396
1.25146E+07 0.000991816
1.25660E+07 0.000996838
1.26175E+07 0.00100186
1.26689E+07 0.00100689
1.27204E+07 0.00101193
1.27500E+07 0.00101483
1.27719E+07 0.00101697
1.28233E+07 0.00102201
1.28314E+07 0.00102281
1.29157E+07 0.00103108
1.30000E+07 0.00103937
1.31250E+07 0.00103574
1.32500E+07 0.00103215
1.33750E+07 0.00102861
1.35000E+07 0.00102512
1.36035E+07 0.00102226
1.37069E+07 0.00101943
1.38342E+07 0.00101599
1.39615E+07 0.00101259
1.39800E+07 0.00101210
1.39800E+07 0.00101210
1.40000E+07 0.00101157
1.41806E+07 0.00100253
1.43611E+07 0.000993682
1.43671E+07 0.000993391
1.43694E+07 0.000993280
1.45000E+07 0.000987004
1.45009E+07 0.000986961
1.45019E+07 0.000986913
1.45039E+07 0.000986818
1.45058E+07 0.000986727
1.45078E+07 0.000986632
1.45117E+07 0.000986446
1.45156E+07 0.000986260
1.45195E+07 0.000986075
1.45234E+07 0.000985889
1.45312E+07 0.000985519
1.45390E+07 0.000985148
1.45468E+07 0.000984778
1.45625E+07 0.000984034
1.45781E+07 0.000983296
1.45937E+07 0.000982560
1.46250E+07 0.000981086
1.46562E+07 0.000979622
1.46875E+07 0.000978159
1.47187E+07 0.000976706
1.47500E+07 0.000975253
1.47812E+07 0.000973811
1.48125E+07 0.000972369
1.48750E+07 0.000969504
1.49597E+07 0.000965655
1.50000E+07 0.000963837
1.51852E+07 0.000956567
1.54015E+07 0.000948257
1.56177E+07 0.000940134
1.56321E+07 0.000939599
1.56503E+07 0.000938925
1.56847E+07 0.000937654
1.57274E+07 0.000936082
1.58773E+07 0.000930619
1.60000E+07 0.000926209
1.61365E+07 0.000923664
1.61510E+07 0.000923396
1.62958E+07 0.000920731
1.63869E+07 0.000919070
1.64472E+07 0.000917977
1.67032E+07 0.000913397
1.67087E+07 0.000913300
1.67104E+07 0.000913270
1.69056E+07 0.000909841
1.69900E+07 0.000908375
1.69900E+07 0.000908375
1.70000E+07 0.000908202
1.72289E+07 0.000907787
1.72426E+07 0.000907762
1.74015E+07 0.000907478
1.79355E+07 0.000906541
1.79482E+07 0.000906519
1.79483E+07 0.000906519
1.80000E+07 0.000906430
1.90000E+07 0.000918210
2.00000E+07 0.000940553