Mo-100(n,g) ENDF/B-VII.1
Energy(eV) XS(b)
1.00000E-05 10.0119
1.25000E-05 8.95487
1.50000E-05 8.17464
2.00000E-05 7.07945
2.75000E-05 6.03737
3.50000E-05 5.35156
4.25000E-05 4.85646
5.00000E-05 4.47743
6.25000E-05 4.00474
7.50000E-05 3.65581
0.000100000 3.16602
0.000125000 2.83178
0.000150000 2.58505
0.000200000 2.23872
0.000275000 1.90918
0.000350000 1.69231
0.000425000 1.53574
0.000500000 1.41589
0.000625000 1.26641
0.000750000 1.15607
0.00100000 1.00118
0.00125000 0.895482
0.00150000 0.817458
0.00200000 0.707938
0.00275000 0.603729
0.00350000 0.535147
0.00425000 0.485636
0.00500000 0.447733
0.00625000 0.400462
0.00750000 0.365568
0.0100000 0.316587
0.0125000 0.283161
0.0150000 0.258486
0.0200000 0.223851
0.0253000 0.199022
0.0314750 0.178430
0.0376500 0.163138
0.0500000 0.141555
0.0625000 0.126603
0.0750000 0.115566
0.100000 0.100071
0.125000 0.0894957
0.150000 0.0816883
0.200000 0.0707275
0.275000 0.0602952
0.350000 0.0534271
0.500000 0.0446689
0.750000 0.0364294
1.00000 0.0315122
1.50000 0.0256705
2.00000 0.0221808
2.75000 0.0188526
3.50000 0.0166562
5.00000 0.0138470
7.50000 0.0111928
10.0000 0.00960297
15.0000 0.00771149
20.0000 0.00658623
27.5000 0.00552889
35.0000 0.00485368
50.0000 0.00406206
73.5800 0.00367948
79.4749 0.00385172
85.3699 0.00453500
88.3174 0.00556693
89.7912 0.00662276
91.2649 0.00857866
92.7387 0.0128116
93.4755 0.0170599
94.2124 0.0248462
94.5809 0.0314322
94.9493 0.0415209
95.3177 0.0581131
95.6862 0.0882685
95.8704 0.113575
96.0546 0.152051
96.2388 0.214697
96.4230 0.326917
96.5151 0.419749
96.6073 0.558918
96.6994 0.781191
96.7915 1.16843
96.8836 1.93425
96.9296 2.63356
96.9757 3.78849
97.0218 5.89258
97.0448 7.65339
97.0678 10.3070
97.0908 14.5435
97.1139 21.7871
97.1369 35.1851
97.1599 61.1944
97.1800 97.9378
97.2000 122.449
97.2201 97.9577
97.2401 61.2195
97.2617 36.3850
97.2832 23.0696
97.3048 15.6432
97.3264 11.2088
97.3479 8.38722
97.3695 6.49633
97.4126 4.21170
97.4557 2.94365
97.4989 2.17071
97.5851 1.31839
97.6713 0.884604
97.7576 0.634567
97.8438 0.477539
97.9301 0.372559
98.1026 0.245305
98.2751 0.174075
98.4476 0.130227
98.6201 0.101333
98.9650 0.0668202
99.3100 0.0477765
99.6550 0.0361665
100.000 0.0285687
100.781 0.0187338
101.563 0.0136789
102.344 0.0107393
103.125 0.00887949
104.688 0.00674485
106.250 0.00561120
109.375 0.00450394
112.500 0.00399981
125.000 0.00341446
150.000 0.00342194
200.000 0.00452843
220.418 0.00548134
240.836 0.00698473
261.254 0.00949267
281.673 0.0140885
291.882 0.0179681
302.091 0.0239037
312.300 0.0336635
322.509 0.0514429
327.613 0.0664271
332.718 0.0893371
337.822 0.126978
342.927 0.195429
345.479 0.252983
348.032 0.340732
349.308 0.403020
350.584 0.484266
351.222 0.534510
351.541 0.562633
351.860 0.593050
352.179 0.626029
352.498 0.661842
352.817 0.700839
353.136 0.743406
353.455 0.790011
353.774 0.841146
354.412 0.959625
355.050 1.10516
355.688 1.28664
356.326 1.51703
356.964 1.81553
357.603 2.21203
358.241 2.75444
358.879 3.52440
359.517 4.66914
360.155 6.47727
360.793 9.57739
361.112 12.0332
361.431 15.5611
361.750 20.8830
362.069 29.4323
362.388 44.3768
362.548 56.3607
362.707 73.6900
362.867 99.8283
363.026 141.167
363.186 209.619
363.345 324.895
363.523 519.659
363.700 649.187
363.878 519.040
364.055 324.292
364.188 224.535
364.321 159.855
364.453 117.787
364.586 89.6508
364.852 56.2348
365.117 38.2525
365.383 27.5946
365.648 20.8042
366.179 12.9977
366.710 8.86717
367.241 6.42734
367.772 4.86887
368.303 3.81397
369.365 2.51954
370.428 1.78635
371.490 1.33153
372.552 1.03025
374.676 0.668619
376.800 0.468261
378.924 0.345859
381.048 0.265694
385.297 0.170605
389.545 0.118558
393.793 0.0870409
398.041 0.0665397
406.538 0.0424058
415.034 0.0293103
423.531 0.0214396
432.028 0.0163576
449.021 0.0104578
466.014 0.00740355
483.007 0.00604275
491.504 0.00646184
495.752 0.00777847
497.876 0.00934687
500.000 0.0125724
501.840 0.0189662
502.759 0.0254073
503.679 0.0372307
504.599 0.0625888
505.059 0.0878561
505.518 0.133844
505.748 0.172521
505.978 0.231413
506.208 0.327548
506.438 0.500452
506.553 0.644140
506.668 0.860478
506.783 1.20807
506.898 1.81822
506.956 2.31361
507.013 3.04242
507.071 4.17703
507.128 6.07799
507.185 9.63215
507.214 12.6910
507.243 17.4099
507.272 25.2538
507.300 39.3699
507.315 50.9596
507.329 67.6701
507.344 92.6358
507.358 129.350
507.379 206.979
507.400 258.741
507.421 206.986
507.442 129.360
507.456 93.2791
507.470 68.6752
507.498 40.4010
507.526 26.0594
507.554 18.0737
507.582 13.2037
507.610 10.0554
507.666 6.36550
507.722 4.38116
507.778 3.19607
507.834 2.43327
507.889 1.91398
508.001 1.27296
508.113 0.907585
508.225 0.679896
508.337 0.528639
508.560 0.346200
508.784 0.244717
509.007 0.182474
509.231 0.141603
509.678 0.0929256
510.125 0.0661660
511.019 0.0392705
511.914 0.0267013
512.808 0.0198406
514.596 0.0130167
516.385 0.00990889
518.173 0.00831265
521.750 0.00715273
525.327 0.00777002
528.904 0.0116414
530.693 0.0176128
531.587 0.0237069
532.481 0.0349442
533.375 0.0591054
533.822 0.0831962
534.270 0.127059
534.493 0.163939
534.717 0.220079
534.940 0.311735
535.164 0.476428
535.276 0.613204
535.387 0.819004
535.499 1.14937
535.611 1.72850
535.667 2.19810
535.723 2.88809
535.779 3.96040
535.834 5.75667
535.890 9.09887
535.918 11.9647
535.946 16.3687
535.974 23.6501
536.002 36.6470
536.030 62.3765
536.044 84.7955
536.058 117.418
536.079 188.063
536.100 234.869
536.121 187.711
536.142 117.426
536.158 81.9605
536.173 58.8571
536.188 43.5798
536.204 33.3425
536.234 21.0443
536.265 14.3904
536.296 10.4114
536.326 7.86620
536.388 4.93368
536.449 3.37385
536.510 2.45150
536.572 1.86103
536.633 1.46065
536.756 0.968144
536.878 0.688661
537.001 0.515026
537.124 0.399925
537.369 0.261415
537.614 0.184531
537.860 0.137460
538.105 0.106565
538.596 0.0698063
539.086 0.0496071
540.067 0.0292943
541.049 0.0197793
542.030 0.0145596
543.993 0.00929948
547.918 0.00542381
551.843 0.00397887
559.694 0.00281366
567.544 0.00230036
583.245 0.00177938
598.946 0.00148319
630.348 0.00112630
661.750 0.000915142
693.152 0.000787947
724.553 0.000742011
740.254 0.000780517
755.955 0.000967378
763.806 0.00125919
771.656 0.00211848
775.582 0.00333100
779.507 0.00679489
781.469 0.0116266
782.451 0.0164656
783.432 0.0253283
784.413 0.0443136
784.904 0.0632292
785.395 0.0976657
785.885 0.170777
786.131 0.242878
786.376 0.372691
786.499 0.480683
786.621 0.643451
786.744 0.905355
786.867 1.36613
786.928 1.74140
786.989 2.29378
787.051 3.15591
787.112 4.60894
787.173 7.34435
787.204 9.71070
787.235 13.3867
787.265 19.5541
787.296 30.8169
787.311 40.2350
787.327 54.0309
787.342 74.8591
787.357 106.322
787.379 170.285
787.400 212.667
787.422 169.970
787.443 106.326
787.456 78.8208
787.469 59.4084
787.495 36.1453
787.521 23.8158
787.547 16.7531
787.573 12.3599
787.599 9.48092
787.651 6.06000
787.702 4.19620
787.754 3.07358
787.858 1.84958
787.962 1.23320
788.066 0.880287
788.170 0.659680
788.273 0.512689
788.481 0.335175
788.689 0.236170
788.896 0.175386
789.104 0.135429
789.519 0.0877835
789.934 0.0615623
790.764 0.0351776
791.595 0.0228319
792.425 0.0160794
794.085 0.00932321
797.407 0.00446114
800.728 0.00274757
807.370 0.00151552
814.013 0.00108064
827.297 0.000767695
840.582 0.000659841
867.152 0.000598824
893.722 0.000614952
920.291 0.000687597
946.861 0.000842423
973.430 0.00116517
1000.00 0.00193970
1017.65 0.00322578
1026.48 0.00452121
1035.31 0.00690650
1044.14 0.0120571
1048.55 0.0172323
1052.96 0.0267421
1055.17 0.0348156
1057.38 0.0472314
1059.58 0.0677658
1061.79 0.105385
1062.89 0.137260
1064.00 0.186106
1065.10 0.266686
1066.20 0.413520
1066.76 0.537314
1067.31 0.726311
1067.86 1.03581
1068.41 1.59370
1068.69 2.05978
1068.96 2.76449
1069.24 3.90335
1069.51 5.91190
1069.65 7.55940
1069.79 10.0026
1069.93 13.8478
1070.07 20.4059
1070.20 32.9511
1070.27 44.0031
1070.34 61.5735
1070.41 91.8001
1070.48 149.634
1070.51 200.721
1070.55 277.019
1070.58 397.808
1070.62 590.401
1070.66 941.667
1070.70 1174.59
1070.74 932.723
1070.79 583.443
1070.83 341.116
1070.88 213.835
1070.93 143.910
1070.97 102.581
1071.02 76.4807
1071.07 59.0694
1071.16 38.1405
1071.26 26.5839
1071.35 19.5607
1071.54 11.8683
1071.72 7.93801
1071.91 5.67797
1072.10 4.26104
1072.29 3.31906
1072.66 2.17198
1073.04 1.53232
1073.41 1.13867
1073.79 0.879333
1074.54 0.569425
1075.29 0.398814
1076.04 0.294751
1076.79 0.226800
1078.29 0.146181
1079.79 0.102092
1081.29 0.0753650
1082.80 0.0579497
1085.80 0.0373806
1088.80 0.0261655
1091.80 0.0193834
1094.80 0.0149726
1100.81 0.00977560
1106.81 0.00695104
1118.82 0.00415177
1130.83 0.00287826
1142.84 0.00221745
1166.86 0.00168545
1190.88 0.00174902
1214.90 0.00269194
1226.90 0.00419690
1232.91 0.00574273
1238.91 0.00860705
1244.92 0.0148114
1247.92 0.0210472
1250.92 0.0325050
1252.42 0.0422331
1253.93 0.0571758
1255.43 0.0818682
1256.93 0.127076
1257.68 0.165333
1258.43 0.223867
1259.18 0.320322
1259.93 0.495618
1260.31 0.643382
1260.68 0.867902
1261.06 1.23430
1261.43 1.89302
1261.62 2.44171
1261.81 3.26841
1261.99 4.59791
1262.18 6.92077
1262.28 8.81452
1262.37 11.6028
1262.46 15.9480
1262.56 23.1529
1262.65 36.7257
1262.70 48.3904
1262.74 66.4604
1262.79 96.4058
1262.84 150.513
1262.86 195.914
1262.89 259.070
1262.91 351.880
1262.93 487.793
1262.97 781.739
1263.00 968.966
1263.04 772.810
1263.07 480.819
1263.11 291.160
1263.14 189.289
1263.18 130.631
1263.21 94.7771
1263.25 71.0422
1263.28 55.4494
1263.35 36.3344
1263.42 25.4551
1263.49 18.8711
1263.63 11.5001
1263.78 7.72718
1263.92 5.54442
1264.06 4.17019
1264.20 3.25514
1264.48 2.13508
1264.76 1.50734
1265.04 1.12066
1265.32 0.866498
1265.89 0.561615
1266.45 0.393648
1267.02 0.291070
1267.58 0.224081
1268.71 0.144577
1269.83 0.101039
1270.96 0.0746397
1272.09 0.0574345
1274.34 0.0371152
1276.59 0.0260298
1281.10 0.0149647
1285.61 0.00982595
1290.12 0.00703088
1299.13 0.00425758
1308.15 0.00299171
1317.16 0.00233147
1335.20 0.00179103
1353.23 0.00183599
1362.24 0.00211317
1371.26 0.00273325
1380.27 0.00417619
1384.78 0.00565815
1389.29 0.00840064
1391.54 0.0107350
1393.80 0.0143280
1396.05 0.0202729
1398.30 0.0311711
1399.43 0.0403969
1400.56 0.0545474
1401.69 0.0778693
1402.81 0.120413
1403.38 0.156297
1403.94 0.210990
1404.50 0.300743
1405.07 0.462707
1405.35 0.598169
1405.63 0.803233
1405.91 1.13518
1406.05 1.38417
1406.19 1.72213
1406.33 2.20476
1406.48 2.92230
1406.55 3.42370
1406.62 4.05541
1406.69 4.87872
1406.76 5.97926
1406.83 7.52166
1406.90 9.70382
1406.97 13.0379
1407.04 18.3033
1407.07 22.3205
1407.11 27.6029
1407.14 34.9321
1407.18 45.4580
1407.21 61.1907
1407.25 85.7705
1407.28 125.811
1407.32 191.917
1407.36 308.575
1407.40 383.814
1407.44 305.523
1407.48 191.898
1407.52 124.348
1407.55 84.0185
1407.59 59.5529
1407.62 44.3802
1407.70 26.7365
1407.77 17.8261
1407.84 12.6349
1407.91 9.44228
1408.05 5.81533
1408.20 3.93307
1408.34 2.83456
1408.48 2.13877
1408.63 1.67067
1408.91 1.09982
1409.20 0.778345
1409.48 0.579678
1409.77 0.448407
1410.34 0.291217
1410.91 0.204287
1411.49 0.151228
1412.06 0.116534
1413.20 0.0752850
1414.34 0.0526822
1415.49 0.0389724
1416.63 0.0300425
1418.92 0.0194846
1421.21 0.0137270
1423.49 0.0102432
1425.78 0.00797788
1430.36 0.00530673
1434.93 0.00385199
1439.51 0.00297325
1444.08 0.00240233
1453.23 0.00173131
1462.38 0.00136911
1480.68 0.00102026
1498.98 0.000879671
1517.28 0.000832164
1553.88 0.000902425
1590.48 0.00122376
1627.08 0.00222863
1645.38 0.00363768
1654.53 0.00504790
1663.68 0.00763251
1668.25 0.00982328
1672.83 0.0131900
1677.40 0.0187571
1681.98 0.0289668
1684.27 0.0376201
1686.55 0.0509018
1688.84 0.0728383
1691.13 0.112935
1692.27 0.146817
1693.42 0.198678
1694.56 0.283912
1695.70 0.438559
1696.27 0.568372
1696.85 0.765711
1697.42 1.08699
1697.99 1.66123
1698.28 2.13685
1698.56 2.84993
1698.85 3.98904
1699.13 5.97424
1699.42 9.90274
1699.56 13.4921
1699.71 19.4260
1699.85 30.2463
1699.92 39.3877
1699.99 52.9925
1700.06 75.0519
1700.13 112.319
1700.21 181.044
1700.28 313.975
1700.34 501.422
1700.40 625.970
1700.46 498.153
1700.53 311.435
1700.59 183.703
1700.66 116.589
1700.73 78.7092
1700.80 56.4787
1700.86 42.1432
1700.93 32.6836
1701.06 21.2264
1701.20 14.8158
1701.33 10.9352
1701.60 6.63532
1701.87 4.44068
1702.14 3.18133
1702.41 2.39018
1702.68 1.86112
1703.22 1.21894
1703.76 0.860291
1704.30 0.639179
1704.83 0.493807
1705.91 0.320081
1706.99 0.224299
1708.06 0.165956
1709.14 0.127837
1711.29 0.0826273
1713.45 0.0578925
1715.60 0.0429100
1717.76 0.0331623
1722.06 0.0216774
1726.37 0.0154589
1730.68 0.0117524
1734.99 0.00941407
1743.60 0.00698502
1752.22 0.00673581
1756.52 0.00803807
1760.83 0.0127973
1762.98 0.0198111
1765.14 0.0399867
1766.22 0.0680254
1766.75 0.0959821
1767.29 0.146733
1767.83 0.254418
1768.10 0.360161
1768.37 0.549841
1768.50 0.707671
1768.64 0.942865
1768.77 1.32222
1768.91 1.98021
1769.04 3.29875
1769.11 4.50132
1769.18 6.49676
1769.24 10.2326
1769.28 13.4110
1769.31 18.1048
1769.35 25.9322
1769.38 39.1677
1769.41 65.1366
1769.45 115.947
1769.47 186.873
1769.50 231.916
1769.53 184.174
1769.56 115.949
1769.58 79.7045
1769.60 56.4163
1769.62 41.3883
1769.64 31.3928
1769.68 19.6039
1769.72 13.2995
1769.77 9.57905
1769.81 7.21408
1769.89 4.52490
1769.97 3.08365
1770.06 2.24217
1770.14 1.69777
1770.22 1.33357
1770.39 0.883246
1770.56 0.627968
1770.73 0.469483
1770.89 0.364410
1771.23 0.238152
1771.56 0.168082
1772.23 0.0970726
1772.90 0.0636203
1773.56 0.0452406
1774.90 0.0267660
1777.57 0.0133703
1780.24 0.00859226
1785.59 0.00508589
1790.93 0.00380355
1801.62 0.00285174
1812.31 0.00255258
1833.69 0.00262360
1855.06 0.00335348
1865.75 0.00408403
1876.44 0.00525796
1887.13 0.00724181
1897.81 0.0109121
1903.16 0.0140264
1908.50 0.0188006
1913.85 0.0266555
1919.19 0.0409361
1921.86 0.0529242
1924.54 0.0711601
1927.21 0.100877
1929.88 0.154197
1931.22 0.198383
1931.88 0.227983
1932.55 0.264750
1933.22 0.311198
1933.89 0.371041
1934.22 0.407653
1934.56 0.449961
1934.89 0.499208
1935.22 0.556993
1935.56 0.625406
1935.89 0.707211
1936.23 0.806131
1936.56 0.927271
1936.89 1.07778
1937.23 1.26791
1937.56 1.51277
1937.90 1.83533
1938.23 2.27187
1938.56 2.88216
1938.90 3.76993
1939.23 5.12682
1939.57 7.33375
1939.90 11.2145
1940.07 14.3070
1940.23 18.6914
1940.40 25.0093
1940.57 34.0714
1940.83 54.5497
1941.10 68.1241
1941.37 54.4490
1941.63 34.0531
1941.86 22.4133
1942.09 15.3276
1942.32 10.9598
1942.55 8.15528
1943.00 4.96265
1943.46 3.31234
1943.91 2.35954
1944.37 1.76293
1945.28 1.08857
1946.19 0.737411
1947.11 0.532029
1948.02 0.401752
1948.93 0.314016
1950.75 0.206909
1952.58 0.146533
1954.40 0.109199
1956.23 0.0845191
1959.87 0.0549563
1963.52 0.0386030
1967.17 0.0286203
1970.82 0.0220835
1978.11 0.0143284
1985.41 0.0100805
1992.71 0.00750640
2000.00 0.00583216
2016.49 0.00369786
2032.98 0.00267530
2041.22 0.00243390
2049.47 0.00249170
2057.71 0.00408833
2061.83 0.0111862
2062.87 0.0185356
2063.90 0.0392123
2064.41 0.0676423
2064.93 0.146151
2065.18 0.251795
2065.44 0.533194
2065.57 0.896420
2065.64 1.23876
2065.70 1.80909
2065.76 2.90517
2065.80 3.84535
2065.83 5.31575
2065.86 7.78700
2065.89 12.3522
2065.91 16.1766
2065.92 21.8627
2065.94 30.5587
2065.96 44.7368
2065.98 70.9998
2066.00 89.3716
2066.02 71.0003
2066.04 44.6342
2066.07 27.4262
2066.09 17.7109
2066.11 12.1579
2066.13 8.78531
2066.15 6.61436
2066.18 5.14592
2066.22 3.35624
2066.26 2.35474
2066.31 1.74073
2066.39 1.06559
2066.48 0.715336
2066.57 0.514892
2066.74 0.302495
2067.10 0.140694
2067.45 0.0814658
2068.15 0.0377401
2068.85 0.0220582
2071.65 0.00661884
2077.26 0.00260839
2082.86 0.00179648
2088.47 0.00146902
2099.68 0.00116710
2110.89 0.00100880
2155.74 0.000722790
2200.59 0.000628883
2245.44 0.000641215
2290.29 0.000791541
2312.72 0.000972412
2335.14 0.00131959
2357.57 0.00208049
2368.78 0.00284715
2379.99 0.00425647
2385.60 0.00545293
2391.21 0.00729271
2396.81 0.0103364
2402.42 0.0159201
2405.22 0.0206517
2408.02 0.0279169
2410.83 0.0399093
2413.63 0.0618333
2415.03 0.0803534
2416.43 0.108669
2417.84 0.155213
2419.24 0.239628
2419.94 0.310437
2420.64 0.418016
2421.34 0.593019
2422.04 0.905583
2422.39 1.16456
2422.74 1.55128
2423.09 2.16995
2423.44 3.24269
2423.79 5.36477
2423.97 7.29156
2424.14 10.4622
2424.32 16.2041
2424.41 21.0134
2424.49 28.1395
2424.58 39.5546
2424.67 58.6354
2424.76 93.7455
2424.84 159.631
2424.92 255.526
2425.00 319.490
2425.08 255.502
2425.16 159.615
2425.21 115.367
2425.26 85.5853
2425.36 50.5885
2425.47 32.7717
2425.57 22.7664
2425.67 16.6673
2425.78 12.7010
2425.98 8.06790
2426.19 5.55542
2426.39 4.05340
2426.80 2.42966
2427.22 1.61461
2427.63 1.15081
2428.04 0.861449
2428.45 0.668924
2429.27 0.436548
2430.10 0.307205
2430.92 0.227903
2431.74 0.175857
2433.39 0.113806
2435.03 0.0797020
2436.68 0.0589610
2438.32 0.0454148
2441.61 0.0293799
2444.90 0.0206169
2448.19 0.0153122
2451.48 0.0118612
2458.07 0.00779416
2464.65 0.00558582
2477.81 0.00340600
2490.97 0.00242737
2504.14 0.00193546
2530.46 0.00160149
2556.79 0.00182485
2569.95 0.00222554
2583.11 0.00304224
2589.69 0.00375870
2596.28 0.00487310
2602.86 0.00672794
2609.44 0.0101369
2612.73 0.0130252
2616.02 0.0174558
2619.31 0.0247573
2622.60 0.0380678
2624.25 0.0492867
2625.89 0.0664025
2627.54 0.0944275
2629.18 0.145068
2630.01 0.187363
2630.83 0.251358
2631.65 0.354881
2632.47 0.538343
2632.89 0.689064
2633.09 0.789323
2633.30 0.912461
2633.50 1.06761
2633.71 1.26476
2633.91 1.52323
2634.12 1.86744
2634.32 2.34487
2634.53 3.02994
2634.74 4.06124
2634.94 5.70271
2635.04 6.92220
2635.15 8.56701
2635.25 10.8521
2635.35 14.1006
2635.46 19.0024
2635.56 26.6747
2635.66 39.1983
2635.76 59.6542
2635.88 95.4831
2636.00 119.047
2636.12 95.1522
2636.24 59.3935
2636.37 34.2077
2636.51 21.2138
2636.65 14.1734
2636.78 10.0759
2636.92 7.48275
2637.05 5.76224
2637.32 3.71085
2637.60 2.57893
2637.87 1.89573
2638.41 1.14609
2638.95 0.765848
2639.49 0.547825
2640.04 0.410973
2640.58 0.319812
2641.67 0.209353
2642.75 0.147731
2643.84 0.109866
2644.92 0.0849562
2647.09 0.0552667
2649.26 0.0389654
2651.43 0.0290964
2653.60 0.0227195
2657.94 0.0155103
2662.28 0.0127284
2664.45 0.0133080
2666.62 0.0178623
2667.71 0.0252770
2668.79 0.0471149
2669.34 0.0776279
2669.88 0.162805
2670.15 0.278877
2670.42 0.593245
2670.56 1.00739
2670.63 1.40096
2670.69 2.06710
2670.76 3.37709
2670.80 4.55183
2670.83 6.45493
2670.86 9.82073
2670.88 12.5527
2670.90 16.5482
2670.91 22.6631
2670.93 32.5199
2670.95 49.2405
2670.96 75.9858
2670.98 121.575
2671.00 151.969
2671.02 121.576
2671.04 75.9866
2671.05 46.7631
2671.07 30.3981
2671.09 20.9661
2671.11 15.2020
2671.13 11.4747
2671.14 8.94484
2671.18 5.91355
2671.22 4.15024
2671.25 3.09298
2671.32 1.89345
2671.39 1.27678
2671.46 0.919016
2671.61 0.541937
2671.89 0.254467
2672.17 0.148593
2672.74 0.0703746
2673.31 0.0422044
2674.45 0.0215721
2675.58 0.0141108
2680.13 0.00625808
2684.67 0.00433617
2689.22 0.00341621
2698.31 0.00245379
2707.40 0.00193566
2725.58 0.00139716
2743.76 0.00114241
2780.13 0.000966287
2816.49 0.00101397
2852.86 0.00126226
2889.22 0.00188162
2907.40 0.00251886
2925.58 0.00375152
2934.68 0.00494715
2943.77 0.00740976
2948.31 0.0101705
2952.86 0.0170411
2955.13 0.0260103
2957.40 0.0506520
2958.54 0.0843846
2959.11 0.117816
2959.68 0.178528
2960.24 0.307068
2960.53 0.433605
2960.81 0.661029
2961.10 1.13388
2961.24 1.58990
2961.38 2.39041
2961.45 3.03928
2961.52 3.99296
2961.59 5.47573
2961.66 7.96123
2961.73 12.5907
2961.77 16.6246
2961.81 22.6795
2961.84 32.9693
2961.88 50.9338
2961.89 65.9569
2961.91 87.8024
2961.93 120.238
2961.95 165.387
2961.97 266.421
2962.00 330.785
2962.03 266.421
2962.05 165.387
2962.08 104.212
2962.10 69.0429
2962.13 47.6215
2962.15 34.9165
2962.18 26.3041
2962.21 20.6576
2962.26 13.6552
2962.31 9.60635
2962.36 7.11468
2962.46 4.36279
2962.56 2.93379
2962.66 2.11338
2962.76 1.59075
2962.86 1.24376
2963.07 0.819532
2963.27 0.581452
2963.68 0.337875
2964.08 0.222203
2964.49 0.158397
2965.30 0.0942301
2966.92 0.0479836
2968.55 0.0320575
2971.79 0.0216700
2975.04 0.0194216
2981.53 0.0221646
2988.03 0.0314861
2991.27 0.0398445
2994.52 0.0526904
2997.77 0.0735938
2999.39 0.0892730
3001.01 0.110707
3001.83 0.124507
3002.64 0.141094
3003.45 0.161269
3004.26 0.186109
3005.07 0.217244
3005.88 0.256934
3006.70 0.308606
3007.51 0.377482
3008.32 0.472331
3009.13 0.607721
3009.94 0.810138
3010.75 1.13077
3011.16 1.36621
3011.57 1.68126
3011.97 2.11461
3012.38 2.72829
3012.78 3.63408
3013.19 5.02205
3013.60 7.22603
3014.00 10.7440
3014.50 17.1878
3015.00 21.4799
3015.50 17.1805
3016.00 10.7370
3016.48 6.70587
3016.97 4.40682
3017.45 3.06258
3017.94 2.23392
3018.42 1.69269
3018.90 1.32397
3019.87 0.869766
3020.84 0.613227
3021.80 0.454969
3023.74 0.278585
3025.67 0.187920
3027.61 0.135396
3029.54 0.102300
3031.47 0.0801385
3035.34 0.0532942
3039.21 0.0383848
3043.08 0.0293890
3046.95 0.0237287
3054.69 0.0182578
3058.55 0.0178714
3062.42 0.0196348
3066.29 0.0258451
3068.23 0.0328562
3070.16 0.0462185
3072.09 0.0754196
3073.06 0.104686
3074.03 0.158017
3074.99 0.270957
3075.48 0.382064
3075.96 0.580692
3076.20 0.745311
3076.45 0.992197
3076.69 1.38673
3076.93 2.07079
3077.17 3.42864
3077.29 4.66926
3077.41 6.72019
3077.53 10.4598
3077.59 13.6238
3077.65 18.3201
3077.72 25.9537
3077.78 38.8125
3077.84 62.4916
3077.90 108.192
3077.95 173.287
3078.00 215.399
3078.05 171.977
3078.11 107.170
3078.15 69.3965
3078.20 46.8786
3078.25 33.2273
3078.29 24.7178
3078.39 14.9724
3078.48 9.96765
3078.57 7.06566
3078.67 5.27653
3078.85 3.25734
3079.04 2.20305
3079.23 1.59093
3079.41 1.20265
3079.60 0.941152
3079.97 0.621240
3080.34 0.441080
3081.09 0.256297
3081.83 0.168052
3082.58 0.119261
3084.07 0.0698511
3085.56 0.0465303
3087.05 0.0336740
3090.03 0.0206464
3093.01 0.0144343
3096.00 0.0109472
3101.96 0.00728851
3107.92 0.00544006
3113.88 0.00433827
3125.81 0.00309358
3137.73 0.00241620
3149.66 0.00200230
3173.51 0.00157937
3197.36 0.00152136
3209.29 0.00166367
3221.21 0.00203512
3233.14 0.00295211
3245.06 0.00570904
3251.03 0.00961339
3256.99 0.0207579
3259.97 0.0362805
3261.46 0.0518020
3262.95 0.0801537
3264.44 0.140741
3265.19 0.200857
3265.93 0.309888
3266.31 0.401366
3266.68 0.540314
3267.05 0.766277
3267.42 1.16899
3267.61 1.50327
3267.80 2.00092
3267.98 2.79304
3268.17 4.16645
3268.36 6.88353
3268.45 9.33805
3268.54 13.3625
3268.63 20.6113
3268.68 26.6858
3268.73 35.5472
3268.77 49.7848
3268.82 73.0994
3268.87 115.826
3268.91 194.837
3268.96 312.486
3269.00 389.724
3269.04 312.482
3269.09 194.836
3269.12 133.237
3269.15 93.4500
3269.19 68.0763
3269.22 51.3588
3269.29 31.8344
3269.36 21.4934
3269.43 15.4296
3269.49 11.5921
3269.63 7.23290
3269.77 4.91965
3269.90 3.55932
3270.04 2.69316
3270.17 2.11179
3270.44 1.39396
3270.72 0.989454
3270.99 0.738489
3271.26 0.572184
3271.80 0.372187
3272.34 0.261355
3273.43 0.149263
3274.51 0.0964734
3275.60 0.0675313
3277.77 0.0384747
3282.11 0.0175029
3286.45 0.0100983
3295.14 0.00476775
3303.82 0.00288337
3321.19 0.00151744
3338.55 0.00102769
3355.92 0.000797156
3373.28 0.000673414
3408.02 0.000571900
3442.75 0.000594059
3477.48 0.000808790
3512.21 0.00195830
3529.58 0.00572837
3533.92 0.00916220
3538.26 0.0180932
3540.43 0.0297476
3542.60 0.0612248
3543.69 0.103653
3544.23 0.145403
3544.77 0.220635
3545.32 0.379257
3545.59 0.534399
3545.86 0.811876
3546.13 1.38794
3546.27 1.94117
3546.40 2.89838
3546.54 4.80902
3546.60 6.56088
3546.67 9.41247
3546.74 14.6923
3546.77 19.1340
3546.81 25.8668
3546.84 36.6907
3546.88 55.3988
3546.91 90.5036
3546.94 158.586
3546.97 252.856
3547.00 317.177
3547.03 252.855
3547.06 158.587
3547.08 113.552
3547.10 83.7483
3547.12 62.5677
3547.14 48.7126
3547.17 31.2374
3547.21 21.7459
3547.25 15.8281
3547.29 12.0911
3547.37 7.65420
3547.44 5.26989
3547.52 3.84665
3547.67 2.30774
3547.83 1.53885
3547.98 1.10094
3548.29 0.647345
3548.60 0.429899
3548.91 0.309659
3549.52 0.189584
3550.75 0.109652
3551.99 0.0965119
3553.22 0.122081
3553.83 0.157633
3554.45 0.226810
3555.07 0.376752
3555.37 0.524443
3555.68 0.787854
3555.84 1.00433
3555.99 1.32652
3556.14 1.83582
3556.30 2.70968
3556.45 4.39652
3556.53 5.89696
3556.61 8.30692
3556.68 12.5162
3556.76 20.7678
3556.80 28.2371
3556.84 39.7327
3556.88 59.2590
3556.91 91.2275
3556.96 145.972
3557.00 182.472
3557.04 145.968
3557.09 91.2256
3557.11 66.1738
3557.14 49.4723
3557.20 29.4600
3557.25 19.1751
3557.31 13.4452
3557.36 9.85842
3557.41 7.55623
3557.52 4.81276
3557.63 3.32644
3557.74 2.43440
3557.96 1.46490
3558.18 0.976372
3558.40 0.698656
3558.83 0.409500
3559.27 0.269555
3559.71 0.191609
3560.58 0.111996
3561.45 0.0740650
3562.32 0.0530429
3564.07 0.0316073
3567.56 0.0156919
3571.05 0.00990000
3578.03 0.00582753
3585.01 0.00494797
3591.99 0.00588881
3598.97 0.0104615
3602.46 0.0173256
3605.95 0.0371177
3607.69 0.0646778
3608.57 0.0921976
3609.44 0.142307
3610.31 0.248955
3610.75 0.354191
3611.18 0.543915
3611.62 0.941596
3611.84 1.32664
3612.06 2.00671
3612.17 2.56134
3612.28 3.38141
3612.38 4.66685
3612.49 6.84674
3612.60 10.9805
3612.66 14.6299
3612.71 20.2720
3612.77 30.0353
3612.82 48.0036
3612.85 63.8993
3612.88 87.1050
3612.90 123.093
3612.93 180.479
3612.97 289.602
3613.00 360.991
3613.04 289.599
3613.07 180.478
3613.10 113.642
3613.14 74.7042
3613.17 51.9173
3613.21 38.1735
3613.24 28.8927
3613.27 22.5663
3613.34 14.8797
3613.41 10.4653
3613.48 7.78062
3613.61 4.77404
3613.74 3.21307
3613.88 2.30801
3614.01 1.73736
3614.15 1.35709
3614.42 0.890962
3614.69 0.630200
3615.23 0.362600
3615.77 0.235391
3616.30 0.165133
3617.38 0.0942387
3619.54 0.0427466
3621.69 0.0244727
3626.01 0.0112760
3630.32 0.00659796
3638.94 0.00319749
3647.56 0.00197153
3682.06 0.000709966
3716.55 0.000439942
3751.04 0.000333987
3889.01 0.000223148
4026.98 0.000229738
4095.96 0.000285873
4130.45 0.000457784
4147.70 0.00109779
4156.32 0.00361169
4160.64 0.0135113
4162.79 0.0519847
4163.33 0.0907249
4163.87 0.197266
4164.14 0.339655
4164.41 0.715118
4164.54 1.19331
4164.68 2.35665
4164.75 3.72094
4164.81 6.61145
4164.85 9.50390
4164.88 14.4314
4164.91 24.2153
4164.93 32.5416
4164.95 44.1255
4164.97 70.3372
4165.00 88.2521
4165.03 70.3374
4165.05 44.1260
4165.08 29.7622
4165.10 20.5848
4165.12 14.8387
4165.14 11.2457
4165.18 6.87966
4165.23 4.64441
4165.27 3.31076
4165.31 2.48999
4165.40 1.54371
4165.58 0.757748
4165.75 0.449468
4166.10 0.210458
4166.44 0.121597
4167.14 0.0555574
4167.83 0.0317834
4170.61 0.00830533
4176.16 0.00230278
4187.27 0.000791364
4209.49 0.000427507
4231.70 0.000379125
4253.92 0.000382410
4298.36 0.000446149
4342.79 0.000583698
4387.22 0.000876814
4409.44 0.00116328
4431.66 0.00167754
4442.77 0.00210638
4453.87 0.00275713
4464.98 0.00381869
4476.09 0.00573640
4481.65 0.00734311
4487.20 0.00978842
4492.75 0.0137874
4498.31 0.0210237
4501.09 0.0270876
4503.86 0.0363026
4506.64 0.0513236
4509.42 0.0783241
4510.81 0.100767
4512.19 0.134554
4513.58 0.188948
4514.97 0.284691
4515.67 0.362704
4516.36 0.477638
4516.71 0.556747
4517.05 0.657224
4517.40 0.787471
4517.75 0.960421
4518.10 1.19761
4518.44 1.53262
4518.79 2.02814
4519.14 2.80279
4519.31 3.36504
4519.48 4.10372
4519.66 5.10998
4519.83 6.50318
4520.01 8.51602
4520.18 11.4837
4520.35 16.0297
4520.53 22.9226
4520.76 36.6815
4521.00 45.7907
4521.24 36.6152
4521.48 22.8700
4521.62 16.8550
4521.77 12.6650
4522.06 7.65923
4522.35 5.02815
4522.65 3.52815
4522.94 2.59883
4523.23 1.99113
4523.82 1.27106
4524.40 0.879721
4524.99 0.644413
4526.16 0.388308
4527.33 0.259608
4528.50 0.186073
4529.67 0.140226
4530.84 0.109806
4533.18 0.0733260
4535.52 0.0534038
4537.86 0.0417032
4540.19 0.0347240
4544.87 0.0297626
4547.21 0.0316321
4549.55 0.0383542
4551.89 0.0559915
4553.06 0.0746502
4554.23 0.109356
4555.40 0.184096
4555.99 0.258342
4556.57 0.392683
4557.16 0.674445
4557.45 0.949147
4557.74 1.43426
4557.89 1.83411
4558.04 2.42356
4558.18 3.35085
4558.33 4.93152
4558.47 7.95297
4558.55 10.6131
4558.62 14.8398
4558.69 22.1075
4558.77 36.0104
4558.80 48.2855
4558.84 66.6717
4558.88 96.9098
4558.91 145.753
4558.96 233.347
4559.00 291.361
4559.04 233.344
4559.09 145.587
4559.13 88.1352
4559.18 56.9692
4559.23 38.8467
4559.27 28.1245
4559.32 21.0835
4559.36 16.4344
4559.45 10.7500
4559.54 7.53087
4559.63 5.56147
4559.81 3.39153
4560.00 2.27641
4560.18 1.63569
4560.36 1.23035
4560.54 0.960519
4560.90 0.632025
4561.27 0.447933
4561.99 0.259904
4562.72 0.170418
4563.44 0.120976
4564.89 0.0710025
4567.80 0.0343708
4570.70 0.0210924
4573.60 0.0147100
4576.51 0.0110957
4582.31 0.00726889
4588.12 0.00532281
4593.92 0.00416571
4605.53 0.00287810
4617.15 0.00220041
4628.76 0.00180148
4651.98 0.00141000
4675.20 0.00134196
4686.81 0.00143780
4698.42 0.00169463
4710.04 0.00232417
4715.84 0.00297868
4721.65 0.00419302
4724.55 0.00522675
4727.45 0.00681701
4730.36 0.00944566
4733.26 0.0142555
4734.71 0.0183243
4736.16 0.0245526
4737.61 0.0348072
4739.06 0.0534544
4739.79 0.0691377
4740.52 0.0930298
4741.24 0.132043
4741.97 0.202119
4742.69 0.348196
4743.06 0.489304
4743.42 0.736540
4743.78 1.23368
4743.96 1.69646
4744.14 2.47009
4744.23 3.07381
4744.33 3.92586
4744.42 5.18071
4744.51 7.10373
4744.55 8.51557
4744.60 10.3301
4744.64 12.7618
4744.69 16.1048
4744.73 20.9551
4744.78 27.8809
4744.82 38.1763
4744.87 53.6703
4744.93 85.7406
4745.00 107.337
4745.07 85.7380
4745.13 53.6677
4745.17 39.3059
4745.22 29.2217
4745.30 17.3966
4745.38 11.3192
4745.47 7.91721
4745.55 5.80449
4745.63 4.44110
4745.80 2.82440
4745.97 1.94555
4746.14 1.42237
4746.47 0.853955
4746.80 0.568021
4747.14 0.405248
4747.47 0.303378
4747.81 0.235801
4748.48 0.154165
4749.15 0.108703
4749.81 0.0808232
4750.48 0.0625047
4751.82 0.0406964
4753.16 0.0287083
4754.50 0.0214247
4755.84 0.0166746
4758.51 0.0110726
4761.19 0.00803911
4763.86 0.00623860
4766.54 0.00511586
4771.89 0.00402253
4777.24 0.00420851
4782.59 0.00889637
4785.27 0.0288722
4785.94 0.0492174
4786.61 0.105588
4786.94 0.181527
4787.28 0.384450
4787.44 0.645714
4787.61 1.30181
4787.69 2.08727
4787.78 3.81947
4787.82 5.62410
4787.86 8.98903
4787.88 11.8323
4787.90 16.0902
4787.92 22.6488
4787.94 32.1817
4787.97 51.4903
4788.00 64.3629
4788.03 51.4904
4788.06 32.1819
4788.08 20.4716
4788.11 13.6391
4788.13 9.57088
4788.16 7.02541
4788.21 4.19958
4788.26 2.79313
4788.37 1.46612
4788.47 0.902596
4788.68 0.439059
4788.88 0.258917
4789.30 0.121222
4789.71 0.0704175
4791.37 0.0193473
4794.68 0.00597076
4801.30 0.00242702
4814.55 0.00138744
4827.80 0.00113779
4841.04 0.00104058
4894.03 0.00105078
4947.01 0.00135958
5000.00 0.00209659
5020.65 0.00262848
5041.31 0.00344145
5061.96 0.00477143
5082.62 0.00717083
5092.94 0.00917173
5103.27 0.0121978
5113.60 0.0170931
5123.92 0.0257904
5129.09 0.0329303
5134.25 0.0435553
5136.83 0.0509313
5139.41 0.0603679
5140.71 0.0661068
5142.00 0.0727079
5143.29 0.0803524
5144.58 0.0892637
5145.87 0.0997538
5147.16 0.112207
5148.45 0.127141
5149.74 0.145256
5151.03 0.167516
5152.32 0.195274
5153.61 0.230473
5154.90 0.275947
5156.20 0.336133
5157.49 0.417883
5158.78 0.532483
5160.07 0.699105
5161.36 0.952705
5162.65 1.35835
5163.94 2.04032
5165.23 3.20902
5166.62 5.12763
5168.00 6.40259
5169.39 5.11671
5170.78 3.19409
5172.02 2.06743
5173.25 1.39591
5174.49 0.989011
5175.73 0.731242
5178.20 0.441172
5180.67 0.293043
5183.15 0.208122
5185.62 0.155244
5190.57 0.0957691
5195.51 0.0649544
5200.46 0.0470132
5205.41 0.0356917
5210.35 0.0281272
5220.25 0.0191237
5230.14 0.0147850
5235.09 0.0142433
5240.04 0.0163612
5242.51 0.0206885
5244.98 0.0340858
5246.22 0.0530916
5247.46 0.106614
5248.07 0.179767
5248.69 0.379540
5249.00 0.643503
5249.16 0.896528
5249.31 1.33273
5249.47 2.19616
5249.54 2.97483
5249.62 4.25035
5249.70 6.58574
5249.74 8.53017
5249.77 11.3544
5249.81 15.9143
5249.85 23.3502
5249.89 37.0493
5249.93 62.3664
5249.96 99.5059
5250.00 124.732
5250.04 99.5051
5250.07 62.3661
5250.10 45.1067
5250.12 33.5002
5250.17 19.7239
5250.21 12.7447
5250.26 8.90283
5250.31 6.50444
5250.35 4.94952
5250.45 3.14637
5250.54 2.16438
5250.63 1.58379
5250.82 0.953328
5251.19 0.455503
5251.56 0.267680
5252.31 0.126815
5253.06 0.0755552
5254.55 0.0378935
5256.04 0.0243401
5259.03 0.0142939
5262.01 0.0105250
5267.98 0.00744885
5273.95 0.00606719
5285.89 0.00464605
5297.83 0.00385038
5321.70 0.00295559
5345.58 0.00249836
5393.34 0.00221697
5441.09 0.00252356
5464.97 0.00294549
5488.85 0.00366519
5512.72 0.00490828
5536.60 0.00721031
5548.54 0.00914639
5560.48 0.0120797
5572.42 0.0168193
5584.36 0.0251990
5590.33 0.0320365
5596.30 0.0421449
5599.28 0.0491182
5602.26 0.0579874
5603.76 0.0633592
5605.25 0.0695114
5606.74 0.0766066
5608.23 0.0848463
5609.73 0.0944957
5611.22 0.105877
5612.71 0.119444
5614.20 0.135767
5615.70 0.155663
5617.19 0.180203
5618.68 0.210946
5620.17 0.250124
5621.67 0.301075
5623.16 0.368759
5624.65 0.461088
5626.14 0.590849
5627.63 0.779584
5629.13 1.06362
5630.62 1.50464
5632.11 2.19262
5634.06 3.50903
5636.00 4.38582
5637.95 3.50590
5639.89 2.18961
5641.33 1.52183
5642.77 1.08714
5644.21 0.803037
5645.64 0.612398
5648.52 0.385241
5651.40 0.262600
5654.28 0.189776
5657.15 0.143285
5662.91 0.0897679
5668.66 0.0614111
5674.41 0.0446457
5680.17 0.0339352
5685.92 0.0266913
5697.43 0.0178389
5708.94 0.0129705
5720.44 0.0108354
5723.32 0.0112725
5726.20 0.0136682
5729.07 0.0287518
5730.51 0.0883378
5730.87 0.147901
5731.23 0.308780
5731.41 0.519525
5731.59 1.06138
5731.68 1.72391
5731.77 3.26574
5731.82 4.93298
5731.86 8.21919
5731.88 11.2443
5731.91 15.8380
5731.93 23.3963
5731.95 36.3314
5731.98 57.9041
5732.00 72.5836
5732.03 57.9041
5732.05 36.2585
5732.07 26.2357
5732.08 19.1333
5732.12 11.2444
5732.15 7.17363
5732.18 4.98335
5732.25 2.76127
5732.32 1.75586
5732.45 0.884072
5732.58 0.531704
5732.85 0.255242
5733.11 0.151138
5734.18 0.0447650
5736.31 0.0164492
5740.57 0.00872919
5744.83 0.00691804
5749.09 0.00603359
5766.12 0.00432038
5800.20 0.00278150
5834.27 0.00203800
5868.35 0.00166399
5902.42 0.00156213
5919.46 0.00164570
5936.49 0.00190500
5953.53 0.00257360
5962.05 0.00328041
5970.57 0.00459923
5979.09 0.00745239
5983.35 0.0103046
5987.60 0.0155062
5989.73 0.0198856
5991.86 0.0265601
5993.99 0.0374755
5996.12 0.0571359
5997.19 0.0735042
5998.25 0.0981927
5999.32 0.137957
6000.38 0.208002
6000.91 0.265144
6001.45 0.349349
6001.98 0.481322
6002.51 0.704042
6003.04 1.12527
6003.31 1.49052
6003.58 2.06249
6003.84 3.02530
6004.11 4.80746
6004.24 6.30274
6004.37 8.52797
6004.51 11.9316
6004.64 17.1492
6004.82 27.4234
6005.00 34.2651
6005.18 27.3598
6005.36 17.0999
6005.48 12.3825
6005.60 9.14955
6005.83 5.41241
6006.07 3.50253
6006.30 2.43505
6006.54 1.78160
6006.77 1.35854
6007.25 0.861453
6007.72 0.593583
6008.19 0.433393
6009.13 0.260004
6010.07 0.173098
6011.01 0.123574
6011.95 0.0926608
6012.89 0.0721237
6014.78 0.0473535
6016.66 0.0335657
6018.54 0.0251132
6020.43 0.0195616
6024.19 0.0129569
6027.96 0.00933203
6031.72 0.00713586
6035.49 0.00571057
6043.02 0.00405204
6050.55 0.00319033
6065.62 0.00251146
6080.68 0.00265980
6095.75 0.00412610
6103.28 0.00643884
6110.81 0.0131845
6114.58 0.0226204
6116.46 0.0320574
6118.34 0.0492979
6120.23 0.0860632
6121.17 0.122528
6122.11 0.188470
6122.58 0.243657
6123.05 0.327294
6123.52 0.462883
6123.99 0.703616
6124.23 0.902323
6124.46 1.19716
6124.70 1.66627
6124.93 2.47053
6125.17 4.03920
6125.29 5.44543
6125.41 7.69792
6125.52 11.7024
6125.64 19.5936
6125.70 26.7872
6125.76 38.3552
6125.82 57.9390
6125.88 91.0640
6125.94 146.179
6126.00 182.148
6126.06 145.243
6126.13 91.0620
6126.19 54.6113
6126.26 35.0605
6126.32 23.9795
6126.39 17.2856
6126.45 12.9922
6126.52 10.0953
6126.65 6.57321
6126.78 4.59507
6126.91 3.39527
6127.17 2.06650
6127.43 1.38563
6127.69 0.994030
6127.95 0.746844
6128.21 0.582088
6128.73 0.381805
6129.25 0.269631
6130.29 0.155047
6131.34 0.100689
6132.38 0.0707046
6134.46 0.0404911
6136.54 0.0263194
6138.63 0.0185613
6142.79 0.0107839
6151.13 0.00516807
6159.46 0.00317678
6176.13 0.00172979
6192.80 0.00121200
6226.14 0.000849295
6259.47 0.000776336
6292.81 0.000887788
6326.15 0.00140095
6342.82 0.00217263
6359.49 0.00440768
6367.82 0.00753663
6371.99 0.0106725
6376.15 0.0164176
6380.32 0.0287277
6382.41 0.0409973
6384.49 0.0633332
6385.53 0.0821304
6386.57 0.110786
6387.61 0.157619
6388.66 0.241893
6389.18 0.312062
6389.70 0.417871
6390.22 0.588236
6390.74 0.888579
6391.00 1.13363
6391.26 1.49391
6391.52 2.05947
6391.78 3.01142
6392.04 4.81387
6392.17 6.37251
6392.30 8.80970
6392.43 12.9041
6392.56 20.4604
6392.63 26.7819
6392.69 36.1641
6392.76 50.4693
6392.82 72.5339
6392.91 115.936
6393.00 145.092
6393.09 115.932
6393.18 72.5312
6393.25 48.6152
6393.32 33.8043
6393.40 24.3691
6393.47 18.3094
6393.61 11.2547
6393.76 7.55939
6393.90 5.40779
6394.05 4.05272
6394.34 2.51261
6394.63 1.70647
6394.92 1.23340
6395.21 0.932601
6395.50 0.730251
6396.08 0.481787
6396.66 0.341675
6397.24 0.254744
6397.81 0.197311
6398.97 0.128353
6400.13 0.0901547
6401.29 0.0668115
6402.45 0.0515123
6404.77 0.0333417
6407.09 0.0233734
6411.72 0.0133745
6416.36 0.00870775
6421.00 0.00616007
6430.27 0.00361437
6448.81 0.00178523
6467.36 0.00114308
6504.45 0.000692493
6541.53 0.000560852
6615.71 0.000743840
6652.80 0.00192477
6671.35 0.00669766
6675.98 0.0116187
6680.62 0.0255548
6682.94 0.0448397
6685.25 0.0989415
6686.41 0.172918
6686.99 0.245838
6687.57 0.376647
6688.15 0.649006
6688.44 0.911681
6688.73 1.37064
6688.88 1.74345
6689.02 2.29115
6689.17 3.14220
6689.31 4.56750
6689.46 7.21841
6689.53 9.50464
6689.60 12.9802
6689.67 18.7837
6689.75 29.0222
6689.82 49.1689
6689.85 66.5447
6689.89 91.8891
6689.95 147.030
6690.00 183.793
6690.06 147.028
6690.11 91.8877
6690.16 58.9821
6690.21 39.8631
6690.26 28.0824
6690.31 20.7883
6690.41 12.5099
6690.51 8.29304
6690.61 5.88089
6690.70 4.37994
6690.90 2.69923
6691.10 1.82314
6691.30 1.31277
6691.50 0.989903
6691.69 0.773806
6692.09 0.508984
6692.48 0.360319
6693.27 0.207688
6694.06 0.134880
6694.85 0.0946685
6696.44 0.0540181
6699.60 0.0244631
6702.76 0.0139808
6709.09 0.00642559
6715.41 0.00376330
6740.71 0.00118415
6791.31 0.000552171
6841.90 0.000466579
6892.50 0.000485144
6943.10 0.000573303
6993.70 0.000785967
7019.00 0.00102043
7031.65 0.00122598
7044.29 0.00157044
7056.94 0.00225565
7069.59 0.00409060
7082.24 0.0135629
7085.41 0.0232152
7088.57 0.0503745
7090.15 0.0877278
7090.94 0.124745
7091.73 0.191616
7092.52 0.332265
7092.92 0.469259
7093.31 0.712678
7093.71 1.21135
7093.90 1.68350
7094.10 2.48990
7094.30 4.05689
7094.40 5.45515
7094.50 7.67936
7094.60 11.6100
7094.69 19.3624
7094.74 26.4001
7094.79 37.3655
7094.84 55.5575
7094.89 86.6880
7094.95 138.963
7095.00 173.388
7095.05 138.960
7095.11 86.6868
7095.15 59.0331
7095.19 41.3080
7095.24 30.0402
7095.28 22.6343
7095.37 14.0059
7095.45 9.48602
7095.54 6.80095
7095.62 5.10470
7095.79 3.17916
7095.97 2.16107
7096.14 1.56569
7096.31 1.18419
7096.48 0.928001
7096.82 0.613179
7097.17 0.435160
7097.85 0.251958
7098.54 0.164218
7099.22 0.115603
7100.59 0.0664429
7103.34 0.0306330
7106.08 0.0179322
7111.56 0.00881697
7117.05 0.00565869
7128.02 0.00352800
7138.99 0.00295692
7160.93 0.00309760
7182.87 0.00420572
7193.84 0.00524886
7204.81 0.00687573
7215.78 0.00955450
7226.75 0.0143758
7232.24 0.0183694
7237.72 0.0243588
7243.21 0.0339267
7248.69 0.0505978
7251.43 0.0640122
7252.80 0.0728178
7254.18 0.0835759
7255.55 0.0969164
7256.92 0.113703
7258.29 0.135239
7259.66 0.163476
7261.03 0.201501
7262.40 0.254240
7263.77 0.330233
7265.15 0.444907
7266.52 0.628304
7267.20 0.763061
7267.89 0.942402
7268.57 1.18666
7269.26 1.52460
7269.95 1.99909
7270.63 2.65876
7271.82 4.24794
7273.00 5.30426
7274.19 4.23901
7275.38 2.64588
7276.76 1.51412
7278.13 0.934881
7279.51 0.622866
7280.89 0.440953
7282.27 0.327171
7283.64 0.251804
7286.40 0.161850
7289.15 0.112522
7291.90 0.0826836
7297.41 0.0500274
7302.92 0.0335273
7308.43 0.0240622
7313.94 0.0181398
7319.44 0.0141929
7330.46 0.00942778
7341.47 0.00677701
7352.49 0.00515777
7363.51 0.00410221
7385.54 0.00287170
7407.57 0.00223500
7451.63 0.00173909
7495.69 0.00181180
7517.72 0.00205897
7539.76 0.00253018
7561.79 0.00341294
7583.82 0.00524719
7594.83 0.00704918
7605.85 0.0105423
7611.36 0.0140323
7616.86 0.0215305
7619.62 0.0301911
7622.37 0.0519404
7623.75 0.0800865
7624.44 0.107295
7625.13 0.155664
7625.82 0.255828
7626.16 0.352176
7626.50 0.521424
7626.85 0.861217
7627.02 1.17687
7627.19 1.70852
7627.36 2.70635
7627.45 3.56809
7627.54 4.91006
7627.62 7.15138
7627.71 11.2512
7627.75 14.6499
7627.79 19.6498
7627.84 27.1883
7627.88 38.5583
7627.94 61.8861
7628.00 77.0991
7628.06 61.4776
7628.12 38.5582
7628.18 24.9508
7628.23 16.8442
7628.28 11.9352
7628.34 8.87143
7628.44 5.37499
7628.55 3.58277
7628.66 2.55346
7628.76 1.91125
7628.98 1.18786
7629.19 0.812519
7629.41 0.593617
7629.83 0.362173
7630.69 0.186253
7631.55 0.123456
7633.26 0.0833869
7634.97 0.0807796
7636.69 0.102635
7637.54 0.128907
7638.40 0.177895
7639.26 0.280988
7639.68 0.380249
7640.11 0.553791
7640.54 0.899813
7640.76 1.21698
7640.97 1.74410
7641.18 2.71324
7641.29 3.53221
7641.40 4.77944
7641.50 6.79793
7641.61 10.3218
7641.72 17.0386
7641.77 22.7201
7641.83 30.7427
7641.91 49.2281
7642.00 61.4586
7642.09 49.2267
7642.17 30.7421
7642.23 22.5950
7642.28 16.9520
7642.39 10.1917
7642.50 6.67931
7642.61 4.69487
7642.72 3.46063
7642.83 2.65946
7643.04 1.70825
7643.26 1.19030
7643.48 0.880975
7643.91 0.544680
7644.35 0.375727
7644.78 0.279742
7645.65 0.180779
7646.52 0.134156
7647.39 0.109376
7649.12 0.0873677
7650.86 0.0814252
7652.60 0.0833293
7654.34 0.0907153
7655.20 0.0963415
7656.07 0.103346
7656.94 0.111910
7657.81 0.122272
7659.55 0.149854
7661.28 0.190558
7663.02 0.252668
7664.76 0.352416
7665.63 0.425759
7666.50 0.523356
7667.37 0.656109
7668.23 0.839568
7669.10 1.09665
7669.97 1.45362
7671.49 2.32274
7673.00 2.90259
7674.52 2.32234
7676.03 1.45407
7677.68 0.862507
7679.34 0.548996
7680.99 0.376060
7682.64 0.274334
7684.29 0.211017
7685.95 0.170226
7689.25 0.127339
7692.55 0.119186
7694.21 0.129845
7695.86 0.158353
7697.51 0.225725
7698.34 0.292000
7699.16 0.406661
7699.99 0.626829
7700.40 0.820193
7700.82 1.12574
7701.23 1.64599
7701.64 2.62470
7701.85 3.46169
7702.06 4.72070
7702.26 6.69468
7702.47 9.77564
7702.73 15.6266
7703.00 19.5279
7703.27 15.6237
7703.53 9.77234
7703.76 6.40212
7703.99 4.36619
7704.23 3.11900
7704.46 2.32187
7704.92 1.41831
7705.38 0.953693
7705.84 0.685179
7706.30 0.517144
7707.23 0.327198
7708.15 0.227807
7709.07 0.169392
7710.92 0.106623
7712.77 0.0750546
7714.61 0.0567485
7718.31 0.0370401
7722.00 0.0268965
7725.69 0.0208184
7733.08 0.0139611
7740.47 0.0102375
7747.85 0.00792539
7762.63 0.00525475
7777.40 0.00379791
7792.18 0.00290709
7821.72 0.00192125
7851.27 0.00144845
7880.82 0.00130483
7895.59 0.00143422
7910.37 0.00203080
7925.14 0.00564672
7928.84 0.00943303
7932.53 0.0201857
7934.38 0.0350897
7936.22 0.0769545
7937.15 0.134323
7938.07 0.292446
7938.53 0.504329
7938.76 0.709082
7938.99 1.06720
7939.22 1.78836
7939.34 2.46124
7939.46 3.58290
7939.57 5.70185
7939.63 7.53114
7939.69 10.3164
7939.74 15.0200
7939.80 23.3839
7939.83 30.3596
7939.86 40.5563
7939.89 55.8037
7939.92 78.1020
7939.96 124.667
7940.00 156.211
7940.04 124.666
7940.08 78.1013
7940.12 52.7108
7940.15 36.5788
7940.19 26.4356
7940.22 19.9845
7940.29 12.3485
7940.35 8.32185
7940.42 5.96697
7940.49 4.47926
7940.62 2.78333
7940.76 1.88814
7940.89 1.36663
7941.16 0.810017
7941.43 0.534414
7941.69 0.379268
7942.23 0.219362
7943.30 0.100360
7944.38 0.0574784
7946.52 0.0262248
7948.67 0.0151156
7952.97 0.00709424
7957.26 0.00425680
7974.44 0.00146959
7991.61 0.000920739
8008.79 0.000710946
8043.14 0.000542300
8077.49 0.000486710
8111.84 0.000503560
8146.19 0.000666897
8180.55 0.00170692
8197.72 0.00591862
8206.31 0.0225627
8208.46 0.0395839
8210.60 0.0873331
8211.68 0.152666
8212.75 0.332402
8213.29 0.572579
8213.56 0.803562
8213.82 1.20832
8214.09 2.02070
8214.23 2.76864
8214.36 4.01899
8214.50 6.33824
8214.56 8.31622
8214.63 11.3568
8214.70 16.3421
8214.76 25.2127
8214.83 42.6149
8214.86 57.8489
8214.90 79.3533
8214.95 127.462
8215.00 158.714
8215.05 126.474
8215.10 79.3526
8215.16 47.3302
8215.21 30.0774
8215.27 20.4248
8215.32 14.6486
8215.38 10.9692
8215.43 8.49939
8215.54 5.53187
8215.65 3.86447
8215.76 2.84794
8215.98 1.73076
8216.20 1.15907
8216.42 0.830939
8216.86 0.486537
8217.30 0.318778
8217.74 0.224909
8218.61 0.129178
8220.37 0.0587045
8222.12 0.0334699
8225.63 0.0151788
8229.14 0.00870312
8243.18 0.00240366
8271.26 0.000823484
8299.34 0.000552884
8327.42 0.000504680
8355.50 0.000585752
8369.54 0.000703494
8383.58 0.000937413
8397.62 0.00145801
8404.64 0.00198491
8411.66 0.00295361
8415.17 0.00377469
8418.68 0.00503456
8422.19 0.00711122
8425.70 0.0108986
8427.45 0.0140886
8429.21 0.0189572
8430.96 0.0269266
8432.72 0.0413192
8433.59 0.0533322
8434.47 0.0714704
8435.35 0.100808
8436.23 0.152723
8437.10 0.258314
8437.98 0.526592
8438.42 0.850625
8438.64 1.13555
8438.86 1.58842
8438.97 1.92304
8439.08 2.37224
8439.19 2.99259
8439.30 3.86845
8439.41 5.17639
8439.52 7.17377
8439.63 10.4002
8439.74 15.5968
8439.87 24.9734
8440.00 31.1925
8440.07 29.3639
8440.13 24.9725
8440.26 15.5959
8440.35 11.2563
8440.44 8.27969
8440.62 4.86901
8440.79 3.13704
8440.97 2.17553
8441.14 1.58819
8441.32 1.20948
8441.67 0.765250
8442.02 0.526462
8442.37 0.383899
8442.72 0.292158
8443.07 0.229864
8443.77 0.152733
8444.47 0.108834
8445.18 0.0814392
8445.88 0.0632541
8447.28 0.0413256
8448.68 0.0291245
8450.09 0.0216461
8451.49 0.0167342
8454.30 0.0108863
8457.10 0.00767294
8459.91 0.00571951
8462.71 0.00444412
8468.33 0.00293514
8473.94 0.00211089
8479.55 0.00161209
8485.16 0.00128765
8496.39 0.000905844
8507.61 0.000699216
8530.06 0.000497857
8552.51 0.000411950
8574.96 0.000375102
8619.86 0.000377926
8664.76 0.000475721
8687.21 0.000589675
8709.66 0.000804063
8732.11 0.00126622
8743.33 0.00172691
8754.56 0.00256680
8760.17 0.00327502
8765.78 0.00435772
8771.39 0.00613587
8777.01 0.00936548
8779.81 0.0120772
8782.62 0.0162014
8785.42 0.0229245
8788.23 0.0349952
8789.63 0.0450049
8791.04 0.0600499
8792.44 0.0841678
8793.84 0.126417
8795.25 0.210721
8795.95 0.288518
8796.30 0.344545
8796.65 0.418232
8797.00 0.518397
8797.35 0.658772
8797.70 0.863625
8797.88 1.00256
8798.05 1.17694
8798.23 1.40089
8798.40 1.69062
8798.58 2.07784
8798.75 2.60146
8798.93 3.33575
8799.10 4.37862
8799.28 5.89328
8799.45 8.08468
8799.73 12.9351
8800.00 16.1681
8800.14 15.2102
8800.27 12.9340
8800.55 8.08371
8800.75 5.61016
8800.95 4.00812
8801.15 2.95730
8801.36 2.25566
8801.76 1.41804
8802.17 0.966952
8802.57 0.698391
8802.97 0.527357
8803.78 0.330121
8804.59 0.225508
8805.40 0.163723
8806.21 0.124218
8807.02 0.0974556
8808.64 0.0645729
8810.26 0.0459399
8811.88 0.0343694
8813.49 0.0266977
8816.73 0.0174784
8819.97 0.0123664
8823.20 0.00924015
8826.44 0.00719256
8832.91 0.00476464
8839.39 0.00343978
8845.86 0.00264334
8852.33 0.00213221
8865.28 0.00155306
8878.22 0.00127465
8904.12 0.00114172
8930.01 0.00143533
8942.96 0.00184055
8955.90 0.00263726
8968.85 0.00440188
8975.32 0.00618410
8981.79 0.00945666
8988.27 0.0164719
8991.50 0.0234585
8994.74 0.0361638
8996.36 0.0468438
8997.98 0.0630911
8999.60 0.0895868
9001.21 0.137173
9002.02 0.176701
9002.83 0.236063
9003.64 0.331242
9004.45 0.498014
9005.26 0.830885
9005.66 1.13835
9006.07 1.65062
9006.47 2.60202
9006.68 3.41045
9006.88 4.65077
9007.08 6.69194
9007.28 10.2977
9007.48 17.3342
9007.59 23.3538
9007.69 32.0759
9007.84 51.3282
9008.00 64.1641
9008.16 51.3253
9008.31 32.0741
9008.43 22.0399
9008.55 15.6383
9008.67 11.4666
9008.79 8.71256
9009.03 5.44456
9009.27 3.69520
9009.51 2.66220
9009.75 2.00526
9010.23 1.25164
9010.70 0.853694
9011.18 0.618841
9011.66 0.468924
9012.14 0.367665
9013.09 0.243154
9014.05 0.172691
9015.00 0.128917
9015.96 0.0999354
9017.87 0.0650887
9019.78 0.0457697
9021.69 0.0339512
9023.60 0.0261992
9027.43 0.0169826
9031.25 0.0119233
9038.89 0.00684327
9046.54 0.00446935
9054.18 0.00317153
9069.47 0.00187277
9100.05 0.000937673
9130.63 0.000611374
9191.79 0.000416537
9222.37 0.000519641
9237.66 0.00109060
9245.30 0.00340368
9249.12 0.0125173
9251.03 0.0477524
9251.99 0.179521
9252.23 0.306997
9252.47 0.640043
9252.59 1.05813
9252.71 2.05175
9252.77 3.17436
9252.83 5.44308
9252.89 11.2316
9252.92 17.7356
9252.94 29.2982
9252.97 46.8774
9253.00 58.5969
9253.03 46.8774
9253.06 29.2983
9253.08 19.9305
9253.10 13.9890
9253.14 7.69786
9253.19 4.77568
9253.23 3.25281
9253.32 1.76279
9253.41 1.09959
9253.58 0.543364
9253.75 0.322608
9254.45 0.0875756
9255.84 0.0230135
9258.63 0.00609360
9264.21 0.00176129
9275.36 0.000662904
9297.66 0.000386859
9319.96 0.000341424
9342.26 0.000335597
9386.86 0.000370003
9431.46 0.000459646
9476.06 0.000648036
9498.36 0.000819068
9520.66 0.00109823
9542.96 0.00160641
9554.11 0.00204275
9565.26 0.00274037
9576.41 0.00401651
9581.99 0.00514614
9587.56 0.00703905
9598.71 0.0205932
9601.50 0.0336959
9604.29 0.0697678
9605.68 0.118681
9606.38 0.166675
9607.07 0.252713
9607.77 0.431011
9608.12 0.602721
9608.47 0.902234
9608.82 1.50049
9608.99 2.04941
9609.16 2.96313
9609.34 4.64688
9609.43 6.07309
9609.51 8.25018
9609.60 11.7849
9609.69 17.9844
9609.77 29.8817
9609.82 40.0344
9609.86 54.2182
9609.93 86.7496
9610.00 108.438
9610.07 86.7480
9610.14 54.2173
9610.19 39.2164
9610.23 29.1315
9610.32 17.2427
9610.41 11.1803
9610.50 7.80112
9610.59 5.71178
9610.68 4.36551
9610.87 2.77375
9611.05 1.91069
9611.23 1.39738
9611.59 0.840467
9611.95 0.560754
9612.32 0.401639
9613.04 0.236376
9613.76 0.156769
9614.49 0.112564
9615.94 0.0679362
9618.84 0.0360606
9621.74 0.0257278
9624.63 0.0220571
9627.53 0.0214313
9633.33 0.0259424
9636.23 0.0313155
9639.13 0.0399579
9642.03 0.0541643
9644.92 0.0790783
9646.37 0.0990632
9647.82 0.127999
9648.55 0.147582
9649.27 0.172042
9650.00 0.203205
9650.72 0.243591
9651.45 0.297314
9652.17 0.370685
9652.90 0.474239
9653.62 0.626005
9654.34 0.859788
9655.07 1.23899
9655.43 1.51981
9655.79 1.89105
9656.16 2.38560
9656.52 3.03840
9657.26 4.86080
9658.00 6.07265
9658.37 5.71494
9658.74 4.85717
9659.48 3.03532
9660.16 1.94422
9660.84 1.30296
9661.52 0.918268
9662.19 0.676215
9663.55 0.405900
9664.90 0.268856
9666.26 0.190591
9667.61 0.142004
9670.32 0.0874513
9673.03 0.0592248
9675.74 0.0427763
9678.45 0.0323649
9681.16 0.0253615
9686.57 0.0168171
9691.99 0.0119995
9697.41 0.00901767
9702.83 0.00704449
9713.66 0.00467869
9724.50 0.00337225
9735.34 0.00258228
9746.17 0.00207826
9767.84 0.00155051
9789.52 0.00150707
9800.35 0.00181454
9811.19 0.00292754
9816.61 0.00456443
9822.02 0.00926870
9824.73 0.0158018
9827.44 0.0341251
9828.80 0.0591483
9830.15 0.127773
9830.83 0.218949
9831.17 0.306597
9831.50 0.459113
9831.84 0.762615
9832.01 1.03991
9832.18 1.49937
9832.35 2.34711
9832.44 3.06266
9832.52 4.13499
9832.61 5.88170
9832.69 8.86934
9832.77 14.5634
9832.86 25.8575
9832.93 41.3150
9833.00 51.7178
9833.07 41.3142
9833.14 25.8570
9833.20 17.8376
9833.25 12.6236
9833.30 9.25894
9833.36 7.05554
9833.46 4.41788
9833.57 3.00237
9833.68 2.15897
9833.79 1.62794
9834.00 1.01768
9834.21 0.693742
9834.43 0.503439
9834.86 0.299144
9835.29 0.198002
9835.72 0.140708
9836.57 0.0816411
9838.29 0.0376110
9840.00 0.0217056
9843.43 0.0100962
9846.87 0.00596039
9860.59 0.00189883
9874.31 0.00112918
9888.03 0.000876377
9915.48 0.00100240
9929.20 0.00237625
9936.07 0.00800080
9939.50 0.0300174
9941.21 0.113768
9941.64 0.196303
9942.07 0.417015
9942.28 0.701723
9942.50 1.41167
9942.61 2.25037
9942.71 4.11002
9942.77 6.03329
9942.82 9.50361
9942.87 16.8195
9942.90 23.4806
9942.93 33.1799
9942.96 53.0884
9943.00 66.3609
9943.04 53.0882
9943.07 33.1798
9943.10 22.8832
9943.13 16.2400
9943.19 9.06853
9943.24 5.67466
9943.30 3.87915
9943.41 2.11384
9943.52 1.32260
9943.74 0.653955
9943.96 0.389177
9944.41 0.182972
9944.85 0.106098
9946.63 0.0279645
9950.19 0.00744923
9957.31 0.00218424
9971.54 0.000839368
10000.0 0.000497182
10026.2 0.000456014
10052.4 0.000482451
10078.6 0.000569402
10104.8 0.000757970
10131.0 0.00118817
10144.1 0.00162639
10157.2 0.00243335
10170.3 0.00417096
10176.8 0.00590753
10183.4 0.00907928
10186.7 0.0117594
10189.9 0.0158425
10193.2 0.0225595
10196.5 0.0346836
10198.1 0.0448515
10199.8 0.0602705
10201.4 0.0852885
10203.0 0.129519
10203.8 0.166068
10204.7 0.220566
10205.5 0.306975
10206.3 0.453509
10207.1 0.740587
10207.5 0.997506
10207.9 1.41282
10208.3 2.14499
10208.8 3.60092
10209.0 4.95714
10209.2 7.02620
10209.4 10.4647
10209.6 16.2777
10209.8 25.9779
10210.0 32.4160
10210.2 25.9759
10210.4 16.2765
10210.7 10.2457
10210.9 6.89669
10211.1 4.79935
10211.3 3.55038
10211.7 2.12127
10212.1 1.40006
10212.5 0.989946
10212.9 0.735779
10213.7 0.451254
10214.5 0.304426
10215.4 0.219042
10216.2 0.165095
10217.0 0.129234
10218.6 0.0849639
10220.3 0.0600953
10221.9 0.0447524
10223.5 0.0346777
10226.8 0.0225432
10230.1 0.0158585
10233.4 0.0117774
10236.6 0.00910450
10243.2 0.00592930
10249.7 0.00419288
10262.8 0.00245407
10275.9 0.00164807
10289.0 0.00121416
10315.2 0.000804262
10367.5 0.000764413
10393.7 0.00178915
10406.8 0.00607847
10413.4 0.0230412
10415.0 0.0403923
10416.6 0.0885092
10417.5 0.154265
10418.3 0.334243
10418.7 0.572616
10418.9 0.807844
10419.1 1.19735
10419.3 2.00762
10419.4 2.71385
10419.5 3.86410
10419.6 5.91563
10419.7 7.59608
10419.7 10.0770
10419.8 13.9255
10419.8 20.2545
10419.9 31.3293
10419.9 53.0128
10420.0 83.5211
10420.0 105.487
10420.1 83.5201
10420.1 52.4713
10420.2 31.3292
10420.2 18.7054
10420.3 12.1682
10420.3 8.96058
10420.4 6.51539
10420.4 5.15813
10420.5 3.33042
10420.7 2.32139
10420.8 1.70822
10421.0 1.03415
10421.2 0.680776
10421.4 0.488404
10421.9 0.286287
10422.8 0.131783
10423.7 0.0755227
10425.4 0.0343036
10427.2 0.0195889
10430.8 0.00894298
10434.3 0.00518534
10448.5 0.00151883
10477.0 0.000596668
10533.9 0.000446725
10562.3 0.000562649
10590.8 0.000972728
10605.0 0.00156432
10619.2 0.00325165
10626.3 0.00558887
10629.9 0.00791788
10633.4 0.0121383
10637.0 0.0210942
10638.8 0.0299053
10640.5 0.0456027
10641.4 0.0586619
10642.3 0.0782726
10643.2 0.109668
10644.1 0.164558
10645.0 0.273729
10645.4 0.375442
10645.9 0.540810
10646.3 0.852499
10646.5 1.11076
10646.8 1.50262
10647.0 2.13360
10647.2 3.22732
10647.4 5.29114
10647.5 7.00234
10647.6 9.42334
10647.8 15.3577
10648.0 19.0835
10648.2 15.0219
10648.4 9.42278
10648.5 6.30867
10648.7 4.47758
10648.8 3.29450
10648.9 2.50555
10649.2 1.54798
10649.5 1.05601
10649.8 0.755597
10650.1 0.571593
10650.7 0.356318
10651.2 0.242860
10651.8 0.175979
10652.4 0.133321
10652.9 0.104475
10654.1 0.0691101
10655.2 0.0490894
10657.5 0.0285039
10659.8 0.0185968
10662.0 0.0131056
10666.6 0.00755559
10671.2 0.00493714
10675.7 0.00350312
10684.8 0.00206230
10703.0 0.00102393
10721.3 0.000660306
10794.1 0.000344455
10867.0 0.000494570
10903.5 0.00128782
10921.7 0.00442219
10926.2 0.00764694
10930.8 0.0167479
10933.1 0.0293622
10935.3 0.0645126
10936.5 0.112663
10937.6 0.245150
10938.2 0.421831
10938.5 0.595766
10938.8 0.889840
10939.0 1.49936
10939.2 2.04377
10939.3 2.94495
10939.5 4.59181
10939.5 5.97494
10939.6 8.06846
10939.7 11.4285
10939.7 17.2265
10939.8 28.0999
10939.9 38.6263
10939.9 51.0049
10939.9 80.5705
10940.0 101.581
10940.1 80.5695
10940.1 50.5720
10940.2 32.8373
10940.2 21.0228
10940.3 14.3235
10940.3 10.8369
10940.5 6.48337
10940.6 4.28345
10940.7 2.94510
10940.8 2.19864
10941.0 1.35665
10941.2 0.904216
10941.5 0.653948
10941.9 0.383252
10942.4 0.251459
10942.8 0.177584
10943.7 0.102625
10945.5 0.0466292
10947.3 0.0266736
10950.9 0.0121428
10954.5 0.00701032
10968.8 0.00203289
10997.5 0.000960991
11026.2 0.00175987
11040.6 0.00579872
11047.7 0.0218580
11051.3 0.0843222
11052.2 0.147443
11053.1 0.318186
11053.6 0.546857
11054.0 1.15080
11054.2 1.93955
11054.5 3.78154
11054.6 5.85691
11054.7 10.1746
11054.7 14.7666
11054.8 21.2400
11054.9 35.5744
11054.9 60.1957
11055.0 94.8369
11055.0 119.779
11055.1 94.8363
11055.1 59.5811
11055.1 39.1189
11055.2 27.1703
11055.2 19.6629
11055.3 14.7668
11055.3 10.7818
11055.4 8.62559
11055.4 5.85709
11055.5 4.06809
11055.6 3.08173
11055.8 1.93967
11056.1 0.933990
11056.4 0.554556
11057.1 0.257959
11057.8 0.148533
11059.1 0.0676851
11060.5 0.0386361
11065.8 0.0100660
11076.5 0.00275735
11097.9 0.000903472
11140.7 0.000447290
11183.5 0.000396084
11226.3 0.000437805
11269.1 0.000574981
11290.6 0.000716627
11312.0 0.000973719
11333.4 0.00151809
11344.1 0.00205707
11354.8 0.00303792
11360.1 0.00386462
11365.5 0.00512918
11370.8 0.00720807
11376.2 0.0109906
11378.8 0.0141784
11381.5 0.0190191
11384.2 0.0269617
11386.9 0.0412232
11388.2 0.0531382
11389.5 0.0711314
11390.9 0.100161
11392.2 0.150971
11393.6 0.254286
11394.9 0.514880
11395.6 0.825869
11395.9 1.10238
11396.2 1.52488
11396.4 1.84155
11396.6 2.26437
11396.7 2.84416
11396.9 3.60678
11397.1 4.77765
11397.2 6.42053
11397.4 9.10003
11397.6 12.9664
11397.8 20.6060
11398.0 25.6417
11398.1 23.9032
11398.2 20.2355
11398.5 12.6773
11398.6 8.35651
11398.8 5.72505
11399.0 4.10020
11399.2 3.05507
11399.6 1.86280
11400.0 1.24510
11400.4 0.887889
11400.7 0.663950
11401.5 0.410518
11402.3 0.278387
11403.0 0.201042
11403.8 0.151950
11404.5 0.118872
11406.1 0.0784690
11407.6 0.0556813
11409.1 0.0415840
11410.6 0.0323130
11413.6 0.0211197
11416.7 0.0149292
11419.7 0.0111519
11422.8 0.00868663
11428.8 0.00575498
11434.9 0.00415669
11441.0 0.00319260
11447.0 0.00256983
11459.2 0.00184989
11471.3 0.00147970
11495.6 0.00118231
11519.9 0.00118706
11544.2 0.00152631
11556.4 0.00203152
11568.5 0.00342688
11574.6 0.00532953
11580.7 0.0106309
11583.7 0.0179112
11586.7 0.0380552
11588.2 0.0653730
11589.0 0.0920403
11589.8 0.139504
11590.5 0.236641
11590.9 0.328701
11591.3 0.487164
11591.7 0.794674
11591.9 1.06976
11592.0 1.51426
11592.2 2.29736
11592.4 3.85297
11592.5 5.35064
11592.6 7.50619
11592.7 11.0311
11592.8 17.3122
11592.9 27.9280
11593.0 34.5418
11593.1 27.9273
11593.2 17.2277
11593.3 12.6692
11593.3 9.24184
11593.5 5.54384
11593.6 3.62706
11593.7 2.53703
11593.9 1.86661
11594.0 1.42779
11594.3 0.910049
11594.5 0.629223
11594.8 0.460551
11595.3 0.277113
11595.8 0.184950
11596.3 0.132256
11597.4 0.0774442
11599.5 0.0361764
11601.5 0.0212732
11605.7 0.0103666
11609.9 0.00652510
11626.5 0.00302498
11643.2 0.00284415
11659.9 0.00355945
11668.2 0.00429855
11676.5 0.00547115
11684.9 0.00741883
11693.2 0.0109455
11697.4 0.0138849
11701.5 0.0183024
11705.7 0.0254212
11709.9 0.0379102
11711.9 0.0481050
11714.0 0.0630523
11716.1 0.0863429
11718.2 0.125508
11720.3 0.199313
11721.3 0.262692
11722.4 0.361155
11723.4 0.525042
11724.4 0.823283
11725.0 1.06925
11725.5 1.42933
11726.0 1.96903
11726.5 2.77782
11727.3 4.46252
11728.0 5.56780
11728.8 4.43751
11729.5 2.77716
11730.0 2.00710
11730.5 1.48075
11731.4 0.876699
11732.4 0.566518
11733.4 0.394383
11734.4 0.288424
11735.3 0.220271
11737.3 0.139938
11739.2 0.0966710
11741.2 0.0708081
11745.1 0.0428109
11749.0 0.0288120
11752.9 0.0208394
11756.8 0.0158800
11760.7 0.0125993
11768.5 0.00866106
11776.3 0.00650446
11791.9 0.00441206
11807.5 0.00356213
11823.1 0.00326179
11854.3 0.00358931
11869.9 0.00419258
11885.4 0.00522578
11901.0 0.00698297
11916.6 0.0101441
11932.2 0.0165373
11940.0 0.0224617
11943.9 0.0267353
11947.8 0.0323635
11949.8 0.0358858
11951.7 0.0400195
11953.7 0.0449126
11955.6 0.0507599
11957.6 0.0578217
11959.5 0.0664515
11961.5 0.0771381
11963.4 0.0904926
11965.4 0.107639
11967.3 0.129971
11969.3 0.159681
11971.2 0.200145
11973.2 0.256656
11975.1 0.337532
11977.1 0.455362
11979.0 0.625236
11982.0 0.996584
11985.0 1.24243
11986.5 1.16993
11988.0 0.995934
11991.0 0.624604
11993.5 0.415022
11996.0 0.286283
11998.5 0.206030
12001.1 0.154070
12006.1 0.0943543
12011.1 0.0633319
12016.1 0.0453059
12021.2 0.0340099
12031.2 0.0211974
12041.3 0.0145198
12051.3 0.0106228
12061.4 0.00816803
12071.4 0.00654249
12091.5 0.00468730
12111.6 0.00409227
12121.6 0.00447562
12126.7 0.00508892
12131.7 0.00636436
12136.7 0.00928667
12141.7 0.0177343
12144.2 0.0294040
12146.8 0.0616842
12148.0 0.105158
12148.6 0.147271
12149.3 0.219952
12149.9 0.367823
12150.2 0.508046
12150.5 0.736818
12150.8 1.18097
12151.0 1.56824
12151.2 2.12931
12151.3 3.12155
12151.5 4.79572
12151.5 6.24951
12151.6 8.38502
12151.7 11.5921
12151.8 15.8212
12151.9 25.6333
12152.0 31.5739
12152.1 25.6326
12152.2 15.7517
12152.3 11.5918
12152.4 8.38492
12152.5 4.94973
12152.7 3.20466
12152.8 2.22583
12153.0 1.62955
12153.1 1.24196
12153.4 0.787829
12153.7 0.537052
12154.0 0.393028
12154.6 0.236602
12155.3 0.157139
12155.9 0.112659
12157.1 0.0660732
12159.5 0.0312188
12161.9 0.0185901
12166.7 0.00928021
12171.6 0.00592102
12181.2 0.00342556
12190.9 0.00248855
12210.2 0.00173754
12229.5 0.00142688
12268.2 0.00119588
12306.8 0.00122629
12345.4 0.00156514
12364.8 0.00197140
12384.1 0.00274908
12393.7 0.00341528
12403.4 0.00443803
12413.1 0.00611647
12422.7 0.00914716
12427.6 0.0116709
12432.4 0.0154777
12437.2 0.0216080
12442.0 0.0324165
12444.5 0.0412374
12446.9 0.0542026
12449.3 0.0745630
12451.7 0.108827
12454.1 0.173738
12455.3 0.230150
12456.5 0.317644
12457.7 0.465959
12459.0 0.740652
12459.6 0.973531
12460.2 1.31446
12460.8 1.83414
12461.4 2.62768
12462.2 4.20367
12463.0 5.25358
12463.8 4.20266
12464.6 2.62702
12465.5 1.62610
12466.3 1.06161
12467.1 0.734457
12467.9 0.535702
12468.7 0.404872
12469.5 0.316846
12471.1 0.207960
12472.7 0.146287
12474.3 0.108573
12477.5 0.0665652
12480.8 0.0449397
12484.0 0.0324528
12487.2 0.0245628
12490.4 0.0192962
12496.9 0.0129031
12503.3 0.00934326
12509.8 0.00718374
12516.2 0.00580645
12529.1 0.00437918
12542.0 0.00431549
12554.9 0.00844481
12561.4 0.0264506
12563.0 0.0448546
12564.6 0.0953216
12565.4 0.163216
12566.2 0.340611
12566.6 0.572580
12567.0 1.13248
12567.2 1.77863
12567.3 2.32719
12567.4 3.16669
12567.5 4.53495
12567.6 6.94976
12567.7 11.6355
12567.8 15.6305
12567.8 21.9772
12567.9 34.8020
12568.0 43.9546
12568.1 34.8015
12568.2 21.9769
12568.2 13.8497
12568.3 9.35624
12568.4 6.63523
12568.4 4.90943
12568.5 3.63065
12568.6 2.87359
12568.7 1.92121
12568.9 1.34089
12569.0 1.00636
12569.3 0.616363
12569.6 0.415688
12569.9 0.299215
12570.5 0.177843
12571.6 0.0837089
12572.8 0.0489262
12575.1 0.0231243
12577.4 0.0138864
12582.0 0.00713334
12586.6 0.00472673
12595.8 0.00300940
12605.0 0.00249357
12623.5 0.00303466
12632.7 0.00640983
12637.3 0.0192012
12638.4 0.0319581
12639.6 0.0668957
12640.2 0.113900
12640.7 0.235603
12641.0 0.391991
12641.2 0.542720
12641.3 0.777839
12641.5 1.24758
12641.5 1.62398
12641.6 2.19486
12641.7 3.11399
12641.7 4.70852
12641.8 7.72810
12641.9 10.6883
12641.9 14.5958
12641.9 22.8586
12642.0 29.1903
12642.1 22.8583
12642.1 14.5956
12642.2 9.82988
12642.2 7.15953
12642.3 5.02648
12642.3 3.90883
12642.4 2.41224
12642.5 1.62407
12642.6 1.16380
12642.7 0.873392
12642.8 0.542838
12643.0 0.369605
12643.2 0.267880
12643.5 0.161550
12644.3 0.0772623
12645.0 0.0458034
12646.4 0.0223452
12647.8 0.0140224
12650.7 0.00811927
12653.5 0.00627756
12664.9 0.00710863
12670.6 0.0109663
12676.3 0.0222520
12679.1 0.0377193
12680.6 0.0528220
12682.0 0.0797639
12683.4 0.135683
12684.1 0.188726
12684.8 0.280607
12685.5 0.460729
12685.9 0.626541
12686.2 0.890152
12686.6 1.37764
12686.8 1.78273
12687.0 2.34796
12687.1 3.27956
12687.3 4.84062
12687.5 7.63809
12687.7 12.5653
12687.8 20.0334
12688.0 25.1318
12688.2 20.0326
12688.3 12.5648
12688.5 8.29735
12688.6 5.73177
12688.8 4.04065
12688.9 3.03185
12689.2 1.83842
12689.5 1.24025
12689.8 0.880734
12690.1 0.662943
12690.6 0.410787
12691.2 0.279215
12691.8 0.202166
12692.9 0.120304
12694.1 0.0798247
12695.2 0.0572837
12697.5 0.0342297
12699.8 0.0233900
12702.0 0.0176700
12706.6 0.0128514
12711.2 0.0129989
12715.7 0.0201150
12718.0 0.0316932
12720.3 0.0650666
12721.5 0.110897
12722.6 0.236549
12723.2 0.402927
12723.5 0.565607
12723.7 0.838591
12724.0 1.39778
12724.2 1.89114
12724.3 2.69756
12724.5 4.28962
12724.5 5.54976
12724.6 7.43840
12724.7 10.4302
12724.7 15.5025
12724.8 24.7942
12724.8 33.6128
12724.9 45.7124
12724.9 73.6189
12725.0 91.4254
12725.1 73.6181
12725.1 45.7119
12725.2 31.0793
12725.2 23.0708
12725.3 13.7487
12725.4 8.96694
12725.5 6.26176
12725.5 4.44210
12725.6 3.41027
12725.8 2.18557
12726.0 1.48570
12726.1 1.09365
12726.4 0.663041
12726.8 0.439584
12727.1 0.312829
12727.7 0.183201
12729.1 0.0850799
12730.4 0.0496054
12733.0 0.0233171
12735.6 0.0138959
12746.0 0.00437631
12766.9 0.00164218
12787.9 0.00101249
12808.8 0.000751452
12850.6 0.000536176
12892.4 0.000465660
12976.0 0.000629877
13017.8 0.00158797
13028.3 0.00258547
13038.7 0.00539951
13044.0 0.00927776
13049.2 0.0200391
13051.8 0.0346532
13053.1 0.0489261
13054.4 0.0740749
13055.7 0.125781
13056.4 0.174252
13057.0 0.257156
13057.7 0.419989
13058.0 0.565728
13058.3 0.792147
13058.7 1.19935
13059.0 1.96905
13059.2 2.69800
13059.3 3.78378
13059.5 5.55484
13059.6 8.50760
13059.8 13.7457
13060.0 17.0171
13060.2 13.7451
13060.4 8.50719
13060.5 5.41571
13060.7 3.53923
13060.9 2.44853
13061.1 1.77865
13061.3 1.34411
13061.4 1.04856
13061.8 0.686407
13062.2 0.482709
13062.5 0.357410
13063.2 0.218136
13064.0 0.146743
13064.7 0.105405
13065.4 0.0793655
13066.1 0.0619179
13067.6 0.0407275
13069.0 0.0288428
13071.9 0.0166886
13074.8 0.0109168
13077.6 0.00773130
13083.4 0.00451951
13094.9 0.00219067
13106.4 0.00136813
13129.5 0.000781427
13152.5 0.000583848
13198.6 0.000470913
13244.6 0.000482034
13290.7 0.000569210
13336.8 0.000772868
13359.8 0.000971829
13382.9 0.00135685
13405.9 0.00267204
13417.4 0.00689529
13423.2 0.0227857
13424.6 0.0388928
13426.0 0.0838664
13426.8 0.145069
13427.5 0.312472
13427.8 0.534042
13428.2 1.11423
13428.4 1.84013
13428.6 3.58596
13428.7 5.54910
13428.7 9.61462
13428.8 14.0088
13428.8 19.8885
13428.9 29.7457
13428.9 49.5444
13429.0 80.8215
13429.0 98.5110
13429.0 80.8211
13429.1 48.9682
13429.1 37.1012
13429.1 26.7614
13429.2 19.8886
13429.2 15.2228
13429.3 9.61475
13429.3 6.96543
13429.4 3.92166
13429.5 2.50042
13429.8 1.23302
13430.0 0.746018
13430.4 0.352787
13430.9 0.207402
13432.7 0.0556835
13436.2 0.0158091
13443.4 0.00582808
13457.7 0.00400304
13472.0 0.00479835
13486.3 0.00695443
13493.5 0.00886374
13500.6 0.0118009
13507.8 0.0166141
13514.9 0.0252686
13518.5 0.0324540
13522.1 0.0432108
13525.6 0.0604706
13529.2 0.0905250
13532.8 0.150360
13534.6 0.205262
13536.4 0.295777
13538.2 0.462575
13539.1 0.604181
13539.9 0.816937
13540.8 1.16413
13541.7 1.76037
13542.6 2.88350
13543.5 5.12174
13544.3 8.21973
13545.0 10.2487
13545.8 8.17403
13546.5 5.12066
13547.3 3.10228
13548.0 1.99381
13548.8 1.36445
13549.6 0.983902
13550.3 0.739689
13551.1 0.574863
13552.7 0.374408
13554.2 0.262461
13555.7 0.193917
13558.8 0.118044
13561.9 0.0792957
13565.0 0.0569114
13568.1 0.0428326
13571.1 0.0334094
13577.3 0.0219771
13583.5 0.0155717
13589.6 0.0116269
13595.8 0.00902699
13608.1 0.00592217
13620.4 0.00421062
13632.7 0.00316934
13645.0 0.00249075
13669.7 0.00169220
13694.3 0.00126530
13743.6 0.000875608
13792.9 0.000777463
13842.1 0.000924206
13866.8 0.00118611
13879.1 0.00143449
13891.4 0.00185464
13903.7 0.00266910
13916.0 0.00471960
13922.2 0.00735231
13928.4 0.0144100
13931.4 0.0238366
13933.0 0.0330292
13934.5 0.0494452
13936.1 0.0833364
13936.8 0.115822
13937.6 0.172502
13938.4 0.284947
13938.8 0.389685
13939.1 0.558952
13939.5 0.878040
13939.7 1.14064
13939.9 1.53743
13940.1 2.17277
13940.3 3.26561
13940.5 5.30592
13940.6 7.08796
13940.7 9.60648
13940.8 15.3745
13941.0 19.1822
13941.2 15.3740
13941.3 9.57634
13941.4 6.87890
13941.5 5.02126
13941.8 2.97958
13942.0 1.90098
13942.2 1.32808
13942.4 0.963597
13942.6 0.738359
13943.0 0.472286
13943.5 0.325152
13943.9 0.239194
13944.7 0.144678
13945.6 0.0973913
13946.4 0.0704557
13948.1 0.0425996
13949.8 0.0293249
13951.5 0.0220723
13954.9 0.0150789
13961.7 0.0114105
13968.5 0.0128928
13972.0 0.0152463
13975.4 0.0192081
13978.8 0.0259076
13982.2 0.0379632
13985.6 0.0623917
13987.3 0.0851059
13989.0 0.123282
13989.8 0.152888
13990.7 0.194576
13991.5 0.255782
13991.9 0.298204
13992.4 0.350482
13992.8 0.419226
13993.2 0.507167
13993.6 0.627821
13994.1 0.789691
13994.5 1.02374
13994.9 1.35530
13995.3 1.85838
13995.8 2.58437
13996.4 4.13750
13997.0 5.14676
13997.3 4.83246
13997.6 4.11078
13998.3 2.56335
13998.7 1.87221
13999.1 1.39363
13999.9 0.831614
14000.7 0.542136
14001.5 0.378311
14002.3 0.277911
14003.1 0.212370
14004.7 0.135595
14006.3 0.0937291
14007.8 0.0687622
14011.0 0.0415159
14014.2 0.0278268
14017.4 0.0199954
14020.6 0.0151002
14023.8 0.0118368
14030.2 0.00788625
14036.6 0.00568249
14042.9 0.00432672
14049.3 0.00343423
14062.1 0.00237255
14074.9 0.00179828
14100.4 0.00127367
14125.9 0.00117555
14138.7 0.00127958
14151.4 0.00156856
14164.2 0.00228542
14177.0 0.00441371
14183.3 0.00737620
14186.5 0.0103120
14189.7 0.0156134
14192.9 0.0267009
14194.5 0.0374985
14196.1 0.0564498
14196.9 0.0719985
14197.7 0.0950182
14198.5 0.131161
14199.3 0.191576
14200.1 0.307391
14200.5 0.408629
14200.9 0.568248
14201.3 0.839533
14201.7 1.34880
14201.9 1.78201
14202.1 2.43485
14202.3 3.44799
14202.5 4.92674
14202.7 7.84741
14203.0 9.77979
14203.3 7.84690
14203.5 4.92641
14203.8 2.98743
14204.1 1.92025
14204.3 1.31397
14204.6 0.958144
14204.9 0.719231
14205.1 0.563255
14205.7 0.368252
14206.2 0.258823
14206.7 0.191602
14207.8 0.116962
14208.8 0.0784674
14209.9 0.0564456
14211.0 0.0425672
14212.0 0.0332644
14214.2 0.0219217
14216.3 0.0155932
14220.5 0.00911220
14224.8 0.00602325
14229.0 0.00431977
14237.5 0.00259411
14246.0 0.00178005
14254.5 0.00133064
14271.5 0.000874068
14305.4 0.000533875
14339.4 0.000408092
14407.3 0.000319329
14475.2 0.000306728
14543.1 0.000347185
14577.1 0.000400322
14611.1 0.000502417
14645.0 0.000723868
14662.0 0.000944694
14679.0 0.00134682
14687.5 0.00168529
14696.0 0.00220185
14704.4 0.00304798
14712.9 0.00457862
14717.2 0.00585976
14721.4 0.00779610
14725.7 0.0109422
14729.9 0.0165296
14732.0 0.0211470
14734.2 0.0279999
14736.3 0.0388549
14738.4 0.0575441
14740.5 0.0940777
14741.6 0.126703
14742.7 0.179513
14743.2 0.219018
14743.7 0.272825
14744.2 0.348516
14744.8 0.459173
14745.3 0.628527
14745.6 0.750551
14745.8 0.901735
14746.1 1.10655
14746.4 1.36656
14746.6 1.72435
14746.9 2.17649
14747.5 3.49946
14748.0 4.36225
14748.3 4.10008
14748.6 3.47391
14749.1 2.17617
14749.6 1.40120
14750.1 0.942310
14750.6 0.665726
14751.1 0.491084
14752.1 0.295481
14753.1 0.195904
14754.1 0.138964
14755.1 0.103541
14757.1 0.0637465
14759.1 0.0431419
14761.1 0.0311345
14763.1 0.0235370
14765.1 0.0184297
14769.1 0.0122066
14773.1 0.00870529
14777.1 0.00654316
14781.1 0.00511849
14789.1 0.00340947
14797.1 0.00246627
14805.1 0.00189209
14813.1 0.00151784
14829.1 0.00107643
14845.1 0.000838638
14877.1 0.000610551
14909.1 0.000517669
14941.0 0.000481794
15005.0 0.000493746
15069.0 0.000587958
15132.9 0.000808406
15164.9 0.00102556
15196.9 0.00143852
15228.9 0.00267741
15236.9 0.00362809
15244.9 0.00600934
15248.9 0.00912893
15252.9 0.0177044
15254.9 0.0294129
15256.9 0.0620067
15257.9 0.106321
15258.9 0.227534
15259.4 0.388050
15259.9 0.808824
15260.1 1.33608
15260.3 1.84062
15260.4 2.60735
15260.5 4.12154
15260.6 7.02608
15260.7 9.71744
15260.8 14.1544
15260.8 21.9512
15260.9 37.7943
15260.9 59.2674
15261.0 75.2611
15261.1 59.2669
15261.1 37.4682
15261.2 25.7840
15261.2 18.8239
15261.2 14.1545
15261.3 10.9459
15261.4 7.02621
15261.4 4.85413
15261.5 3.41479
15261.6 2.60750
15261.8 1.65888
15262.1 0.823562
15262.4 0.497546
15263.1 0.234308
15263.7 0.137475
15266.3 0.0383670
15271.6 0.0125488
15282.0 0.00690845
15292.5 0.00740155
15302.9 0.0101105
15308.2 0.0126224
15313.4 0.0165237
15318.6 0.0229290
15323.9 0.0344267
15326.5 0.0439509
15329.1 0.0581499
15331.7 0.0808574
15334.3 0.120105
15336.9 0.197545
15338.3 0.267854
15339.6 0.382144
15340.9 0.589400
15341.5 0.759416
15342.2 1.01213
15342.8 1.41541
15343.5 2.07944
15344.1 3.26170
15344.8 5.44565
15345.4 8.75375
15346.0 10.9163
15346.6 8.69553
15347.2 5.44483
15347.7 3.76841
15348.2 2.68252
15348.6 1.97666
15349.1 1.51292
15350.0 0.952792
15350.9 0.650090
15351.8 0.468650
15352.7 0.354254
15354.5 0.222353
15356.4 0.152072
15358.2 0.110741
15360.0 0.0841720
15361.8 0.0662770
15365.5 0.0442359
15369.1 0.0317457
15372.8 0.0239978
15376.4 0.0188681
15383.7 0.0127244
15391.0 0.00934101
15398.3 0.00729734
15405.6 0.00598380
15420.2 0.00449949
15434.8 0.00379328
15464.0 0.00344625
15493.2 0.00397273
15522.4 0.00556660
15551.6 0.00998366
15558.9 0.0125158
15566.2 0.0173405
15569.9 0.0224429
15573.5 0.0346192
15575.3 0.0500711
15577.2 0.0907951
15578.1 0.144013
15579.0 0.282844
15579.4 0.459420
15579.7 0.621654
15579.9 0.876334
15580.1 1.35855
15580.2 1.78557
15580.4 2.37814
15580.5 3.41929
15580.6 5.06145
15580.7 8.03672
15580.8 13.6595
15580.9 21.8445
15581.0 27.3013
15581.1 21.8443
15581.2 13.6595
15581.3 8.81233
15581.4 6.18791
15581.5 4.35658
15581.5 3.31032
15581.7 2.02526
15581.9 1.38918
15582.0 0.992902
15582.2 0.745615
15582.5 0.472852
15582.9 0.325903
15583.2 0.242469
15583.9 0.153203
15585.2 0.0838670
15586.5 0.0590961
15589.2 0.0423624
15591.9 0.0384502
15594.6 0.0387971
15597.2 0.0413351
15599.9 0.0454840
15602.6 0.0511514
15605.2 0.0585737
15607.9 0.0681338
15610.6 0.0804593
15613.2 0.0964683
15615.9 0.117467
15618.6 0.145256
15621.2 0.182158
15623.9 0.230452
15629.5 0.367155
15635.0 0.457874
15637.8 0.430914
15640.6 0.366697
15646.1 0.229865
15649.6 0.169347
15653.0 0.127033
15659.9 0.0767995
15666.9 0.0506651
15673.8 0.0358209
15680.7 0.0267075
15687.6 0.0207934
15701.4 0.0140362
15715.3 0.0109092
15729.1 0.0106107
15736.0 0.0125487
15739.5 0.0149400
15742.9 0.0195996
15746.4 0.0299267
15749.9 0.0592217
15751.6 0.0991670
15752.5 0.138556
15753.3 0.207974
15754.2 0.352180
15754.6 0.487749
15755.1 0.720987
15755.5 1.17328
15755.7 1.58937
15755.9 2.23059
15756.1 3.41683
15756.3 5.66427
15756.5 7.78798
15756.6 11.2363
15756.7 17.1412
15756.8 26.5026
15756.9 42.9372
15757.0 52.8874
15757.1 42.9363
15757.2 26.3863
15757.4 15.1899
15757.5 9.14011
15757.6 5.98294
15757.8 4.28429
15757.9 3.14087
15758.0 2.43968
15758.3 1.56595
15758.6 1.07462
15758.9 0.790797
15759.4 0.479618
15760.0 0.319938
15760.5 0.230257
15761.6 0.135792
15762.7 0.0901894
15763.8 0.0647501
15765.9 0.0388340
15770.3 0.0197564
15774.7 0.0128702
15783.4 0.00778764
15792.1 0.00595033
15809.5 0.00476485
15827.0 0.00489735
15844.4 0.00633913
15853.1 0.00804029
15861.9 0.0112677
15866.2 0.0140125
15870.6 0.0181975
15874.9 0.0249997
15879.3 0.0371051
15881.5 0.0470353
15883.7 0.0617904
15885.8 0.0850633
15888.0 0.124869
15890.2 0.201333
15891.3 0.268991
15892.4 0.377052
15893.5 0.564227
15894.6 0.926286
15895.1 1.24782
15895.6 1.73912
15896.2 2.53169
15896.7 3.82496
15897.4 6.12064
15898.0 7.65119
15898.6 6.11973
15899.3 3.82435
15899.7 2.68585
15900.2 1.93472
15900.7 1.43867
15901.1 1.10263
15902.0 0.698717
15903.0 0.478672
15903.9 0.347227
15904.8 0.262959
15906.6 0.165913
15908.5 0.113932
15910.3 0.0832532
15914.0 0.0501393
15917.7 0.0336367
15921.3 0.0242939
15925.0 0.0184861
15928.7 0.0146347
15936.0 0.0100124
15943.4 0.00747884
15958.0 0.00505100
15972.7 0.00429383
15987.4 0.00506455
16002.1 0.0125340
16005.8 0.0205094
16009.4 0.0429343
16011.3 0.0735999
16013.1 0.156834
16014.0 0.267227
16014.5 0.372682
16015.0 0.555801
16015.4 0.916076
16015.6 1.24316
16015.9 1.78010
16016.1 2.74869
16016.2 3.59330
16016.3 4.74783
16016.5 6.73426
16016.6 9.77781
16016.7 15.0790
16016.8 24.9526
16016.9 39.6495
16017.0 49.7914
16017.1 39.6487
16017.2 24.8376
16017.3 15.7335
16017.4 10.1441
16017.5 6.95085
16017.7 5.01461
16017.8 3.77041
16017.9 2.93015
16018.1 1.90800
16018.3 1.33719
16018.5 0.987782
16019.0 0.601167
16019.4 0.403830
16019.9 0.289879
16020.7 0.170293
16021.6 0.112147
16022.5 0.0795768
16024.2 0.0464222
16026.0 0.0305657
16027.8 0.0218164
16031.3 0.0130009
16038.3 0.00654941
16045.3 0.00422546
16059.4 0.00249267
16073.4 0.00183873
16101.6 0.00131822
16129.7 0.00111457
16185.9 0.000997983
16242.1 0.00108304
16298.4 0.00140910
16354.6 0.00236994
16382.7 0.00364176
16396.8 0.00486496
16410.8 0.00702411
16424.9 0.0114401
16431.9 0.0156480
16438.9 0.0229645
16446.0 0.0374372
16449.5 0.0507013
16453.0 0.0726175
16456.5 0.112873
16458.3 0.146787
16460.0 0.197913
16461.8 0.280641
16463.5 0.422978
16465.3 0.692358
16467.1 1.22525
16468.5 1.96512
16470.0 2.45474
16471.5 1.95917
16473.0 1.22489
16474.4 0.757250
16475.9 0.495575
16477.3 0.343680
16478.8 0.250360
16480.2 0.189437
16481.7 0.148301
16484.6 0.0978280
16487.5 0.0693292
16490.4 0.0518652
16496.2 0.0324433
16502.0 0.0225381
16507.8 0.0168585
16519.4 0.0110464
16531.0 0.00843930
16542.7 0.00725131
16565.9 0.00705538
16589.1 0.00930725
16600.7 0.0119242
16612.3 0.0166061
16618.2 0.0203577
16624.0 0.0257508
16626.9 0.0293724
16629.8 0.0338485
16632.7 0.0394819
16635.6 0.0466959
16637.0 0.0511139
16638.5 0.0561583
16641.4 0.0687759
16644.3 0.0861869
16647.2 0.110813
16650.1 0.147179
16653.0 0.202632
16655.9 0.290450
16658.8 0.430648
16662.4 0.688915
16666.0 0.861158
16667.8 0.810289
16669.6 0.688518
16673.2 0.430254
16677.2 0.253150
16681.1 0.159706
16685.1 0.108095
16689.0 0.0774868
16693.0 0.0580767
16696.9 0.0451529
16704.8 0.0296167
16712.7 0.0210580
16720.6 0.0159160
16736.4 0.0104930
16752.2 0.00833420
16760.2 0.00816505
16768.1 0.00885431
16776.0 0.0113249
16779.9 0.0141148
16783.9 0.0194183
16787.8 0.0309411
16789.8 0.0424480
16791.8 0.0631426
16793.7 0.106644
16794.7 0.148864
16795.7 0.222439
16796.2 0.283561
16796.7 0.372019
16797.2 0.513385
16797.7 0.747707
16798.2 1.19999
16798.4 1.59568
16798.7 2.18843
16798.9 3.22512
16799.2 5.05374
16799.3 6.71539
16799.4 9.00164
16799.5 12.4448
16799.7 17.7387
16799.8 28.2895
16800.0 35.4246
16800.2 28.2886
16800.3 17.6858
16800.5 12.4445
16800.6 9.00149
16800.7 6.71533
16800.8 5.15963
16801.1 3.28058
16801.3 2.25190
16801.6 1.61536
16801.8 1.22594
16802.3 0.773537
16802.8 0.527952
16803.2 0.385507
16804.2 0.231645
16805.2 0.154227
16806.1 0.110340
16808.1 0.0651739
16810.0 0.0433757
16811.9 0.0313191
16815.8 0.0190235
16819.7 0.0132013
16823.6 0.00998448
16831.3 0.00673441
16846.8 0.00442724
16862.2 0.00387994
16877.7 0.00434684
16885.5 0.00516274
16893.2 0.00682699
16900.9 0.0105375
16904.8 0.0142445
16908.7 0.0209248
16910.6 0.0264800
16912.5 0.0347701
16914.5 0.0480811
16916.4 0.0711315
16918.3 0.116889
16920.3 0.226673
16921.2 0.351251
16921.7 0.453930
16922.2 0.607569
16922.5 0.719263
16922.7 0.856696
16922.9 1.03504
16923.2 1.27069
16923.4 1.58785
16923.7 2.02184
16923.9 2.62159
16924.1 3.44411
16924.4 4.42023
16924.6 5.53499
16925.0 6.88657
16925.2 6.47263
16925.4 5.48398
16925.9 3.44375
16926.3 2.17685
16926.7 1.45717
16927.1 1.02640
16927.5 0.755682
16928.3 0.451207
16929.1 0.299262
16929.9 0.211629
16930.7 0.157957
16932.3 0.0973655
16933.9 0.0660735
16935.5 0.0478653
16937.1 0.0363542
16938.7 0.0286593
16942.0 0.0192162
16945.2 0.0139012
16948.4 0.0106149
16951.6 0.00844611
16958.1 0.00583204
16964.5 0.00438025
16977.3 0.00289966
16990.2 0.00219773
17003.1 0.00181805
17028.8 0.00149079
17054.5 0.00151581
17067.4 0.00169432
17080.3 0.00210105
17093.1 0.00305778
17106.0 0.00586448
17112.4 0.00979751
17118.9 0.0208692
17122.1 0.0360878
17125.3 0.0780073
17126.9 0.134385
17127.7 0.189426
17128.5 0.285294
17129.3 0.481296
17129.7 0.662111
17130.1 0.967013
17130.5 1.54019
17130.7 2.03601
17130.9 2.80952
17131.1 4.10491
17131.3 6.48506
17131.4 8.46811
17131.5 11.4012
17131.6 15.8576
17131.7 23.0684
17131.9 36.6417
17132.0 46.1388
17132.1 36.6408
17132.3 23.0679
17132.4 16.4169
17132.5 11.7664
17132.6 8.71125
17132.7 6.82506
17132.9 4.37191
17133.0 3.01546
17133.2 2.16330
17133.4 1.64593
17133.8 1.04157
17134.2 0.710410
17134.6 0.518910
17135.3 0.311301
17136.1 0.206277
17136.9 0.146695
17138.4 0.0854081
17140.0 0.0557835
17141.5 0.0394328
17144.5 0.0228137
17150.7 0.0106232
17156.8 0.00628516
17169.1 0.00314035
17181.4 0.00202413
17205.9 0.00121625
17230.4 0.000932796
17279.5 0.000751510
17328.6 0.000742540
17377.6 0.000836429
17426.7 0.00108298
17451.2 0.00134133
17475.8 0.00189628
17488.0 0.00253933
17500.3 0.00417750
17512.6 0.0123375
17518.7 0.0433781
17520.2 0.0746765
17521.8 0.159937
17522.5 0.273967
17523.3 0.569090
17523.7 0.951379
17523.9 1.29381
17524.1 1.85873
17524.3 2.88609
17524.4 3.80001
17524.5 5.03865
17524.6 7.24375
17524.6 10.6384
17524.7 17.6902
17524.8 23.6269
17524.8 31.9116
17524.9 51.1853
17525.0 63.8231
17525.1 51.1847
17525.2 31.9113
17525.2 19.8080
17525.3 12.8932
17525.4 8.89931
17525.5 6.70398
17525.6 5.03876
17525.6 3.91422
17525.8 2.60974
17525.9 1.82067
17526.1 1.36449
17526.4 0.834867
17527.0 0.404749
17527.6 0.240174
17528.9 0.112763
17530.1 0.0657399
17532.6 0.0309341
17535.0 0.0185288
17544.9 0.00648490
17554.7 0.00446710
17564.6 0.00401880
17584.3 0.00447885
17604.0 0.00604493
17613.9 0.00737571
17623.8 0.00930406
17628.7 0.0105963
17633.6 0.0121952
17638.5 0.0142011
17641.0 0.0154021
17643.5 0.0167583
17645.9 0.0183099
17648.4 0.0200797
17650.9 0.0221264
17653.3 0.0244883
17658.3 0.0304888
17663.2 0.0388947
17668.1 0.0510562
17673.1 0.0692564
17678.0 0.0972869
17682.9 0.140475
17689.5 0.224300
17696.0 0.279968
17699.3 0.263451
17702.6 0.224076
17709.1 0.140251
17713.8 0.0987299
17718.5 0.0713116
17723.2 0.0531509
17727.8 0.0408201
17737.2 0.0259640
17746.6 0.0178529
17755.9 0.0129973
17765.3 0.00988623
17784.0 0.00628939
17802.7 0.00437922
17821.5 0.00325431
17858.9 0.00207739
17896.3 0.00157748
17933.8 0.00155130
17952.5 0.00188170
17961.9 0.00228257
17971.2 0.00306514
17980.6 0.00480155
17990.0 0.00977780
17994.6 0.0166620
17999.3 0.0358500
18001.7 0.0618272
18002.8 0.0871683
18004.0 0.132225
18005.2 0.224273
18005.8 0.312289
18006.3 0.460881
18006.9 0.753663
18007.2 1.01073
18007.5 1.42319
18007.8 2.17643
18008.1 3.62187
18008.3 4.96989
18008.4 6.96400
18008.5 10.5236
18008.7 16.1350
18008.8 25.8168
18009.0 32.2714
18009.2 25.8161
18009.3 16.1345
18009.5 9.92891
18009.6 6.45394
18009.8 4.45116
18010.0 3.28859
18010.1 2.47651
18010.3 1.95570
18010.6 1.28761
18010.9 0.909133
18011.2 0.675127
18011.8 0.413703
18012.4 0.279030
18013.1 0.200795
18014.3 0.118240
18015.5 0.0778957
18016.8 0.0552252
18019.3 0.0319987
18021.7 0.0209162
18024.2 0.0148213
18029.2 0.00866101
18039.1 0.00416711
18049.0 0.00256015
18068.9 0.00137877
18088.8 0.000942255
18108.6 0.000725862
18128.5 0.000598582
18168.2 0.000455757
18247.6 0.000327525
18327.1 0.000271206
18406.5 0.000249755
18485.9 0.000270648
18525.6 0.000323831
18565.4 0.000491942
18605.1 0.00142343
18624.9 0.00512092
18629.9 0.00891479
18634.9 0.0195576
18637.3 0.0341331
18639.8 0.0743726
18641.1 0.128271
18641.7 0.180368
18642.3 0.272050
18642.9 0.456327
18643.2 0.627581
18643.5 0.916054
18643.9 1.45748
18644.0 1.94367
18644.2 2.65328
18644.3 3.92191
18644.5 6.09788
18644.6 8.01998
18644.6 10.8930
18644.7 15.3063
18644.8 21.5773
18644.9 34.2026
18645.0 43.1561
18645.1 34.2021
18645.2 21.5769
18645.3 13.4215
18645.4 8.96022
18645.5 6.30014
18645.6 4.63234
18645.7 3.44456
18645.8 2.71363
18646.0 1.80190
18646.2 1.25962
18646.4 0.941174
18646.9 0.575247
18647.3 0.387223
18647.7 0.278190
18648.5 0.163332
18650.1 0.0758422
18651.8 0.0437833
18655.0 0.0199937
18658.3 0.0114471
18664.8 0.00523897
18671.4 0.00303735
18697.6 0.000891929
18749.9 0.000351047
18854.6 0.000226008
18906.9 0.000224361
18959.2 0.000248916
19011.6 0.000383867
19037.8 0.000889523
19050.8 0.00286651
19057.4 0.0106306
19060.6 0.0406978
19062.3 0.154395
19063.1 0.560001
19063.3 0.947245
19063.5 1.85333
19063.6 2.88114
19063.7 5.04197
19063.8 10.7147
19063.9 17.4725
19063.9 24.4948
19063.9 34.8345
19064.0 56.0104
19064.0 69.6695
19064.0 56.0102
19064.1 34.8345
19064.1 21.8071
19064.2 14.2129
19064.2 7.68751
19064.3 4.73397
19064.4 3.18643
19064.5 1.71438
19064.7 1.06558
19064.9 0.513742
19065.2 0.306002
19066.4 0.0829151
19068.6 0.0217449
19073.1 0.00572801
19082.2 0.00163280
19100.3 0.000609772
19136.5 0.000385243
19172.7 0.000394618
19208.9 0.000479985
19245.1 0.000684515
19263.2 0.000889897
19281.3 0.00126264
19290.3 0.00157558
19299.4 0.00205204
19308.4 0.00283039
19317.5 0.00423390
19322.0 0.00540517
19326.5 0.00717109
19331.0 0.0100300
19335.6 0.0150835
19337.8 0.0192381
19340.1 0.0253766
19342.3 0.0350379
19344.6 0.0515192
19346.9 0.0830621
19348.0 0.110869
19349.1 0.155115
19349.7 0.188000
19350.3 0.231344
19350.8 0.292252
19351.4 0.377602
19351.7 0.436431
19352.0 0.506365
19352.2 0.593073
19352.5 0.701680
19352.8 0.844519
19353.1 1.02079
19353.4 1.24543
19353.6 1.52900
19354.0 1.95864
19354.3 2.45052
19355.0 3.06657
19355.3 2.88512
19355.7 2.45030
19356.4 1.52879
19357.0 0.992744
19357.6 0.672012
19358.2 0.477030
19358.8 0.353120
19360.0 0.213466
19361.2 0.142390
19362.4 0.101169
19363.6 0.0754753
19365.9 0.0466424
19368.3 0.0316092
19370.7 0.0228720
19373.1 0.0173138
19375.5 0.0135904
19380.3 0.00903924
19385.1 0.00647755
19389.9 0.00489570
19394.7 0.00385348
19404.3 0.00260556
19413.8 0.00191983
19433.0 0.00123629
19452.1 0.000927617
19471.3 0.000771936
19509.6 0.000658977
19547.9 0.000690389
19586.2 0.000903063
19624.5 0.00201302
19643.7 0.00620951
19648.4 0.0104765
19653.2 0.0224579
19655.6 0.0389430
19658.0 0.0844046
19659.2 0.145825
19660.4 0.308884
19661.0 0.520676
19661.3 0.718988
19661.6 1.05577
19661.9 1.69567
19662.1 2.25533
19662.2 3.13820
19662.4 4.63972
19662.5 7.46102
19662.6 10.0596
19662.7 13.4841
19662.7 18.6473
19662.8 26.9954
19662.9 42.7758
19663.0 53.8544
19663.1 42.7753
19663.2 26.8580
19663.3 15.4359
19663.4 9.67131
19663.5 6.29756
19663.7 4.51003
19663.8 3.29330
19663.9 2.55826
19664.1 1.66603
19664.3 1.15111
19664.6 0.852527
19665.0 0.515600
19665.9 0.246857
19666.8 0.144359
19668.6 0.0669745
19670.4 0.0387020
19674.0 0.0179187
19677.6 0.0105256
19692.0 0.00332616
19720.9 0.00167896
19749.7 0.00165765
19778.5 0.00210828
19807.3 0.00323131
19821.8 0.00436114
19836.2 0.00640514
19850.6 0.0107157
19857.8 0.0149517
19865.0 0.0225551
19868.6 0.0288944
19872.2 0.0384285
19875.8 0.0538356
19879.4 0.0809668
19881.2 0.103229
19883.0 0.135991
19884.8 0.187340
19886.6 0.274422
19888.4 0.439564
19889.3 0.583741
19890.2 0.810814
19891.1 1.19627
19892.0 1.91901
19892.5 2.53358
19892.9 3.46029
19893.4 4.90200
19893.8 7.15689
19894.4 11.5122
19895.0 14.3587
19895.6 11.4322
19896.2 7.15614
19896.6 5.06430
19897.0 3.67135
19897.4 2.74359
19897.8 2.12360
19898.6 1.35795
19899.4 0.935664
19900.2 0.681292
19901.0 0.517246
19902.7 0.326500
19904.3 0.224005
19905.9 0.163472
19909.2 0.0981717
19912.4 0.0655463
19915.6 0.0470673
19918.9 0.0355500
19922.1 0.0279426
19928.6 0.0188148
19935.1 0.0137987
19948.1 0.00886864
19961.1 0.00677429
19974.1 0.00590867
19987.0 0.00575775
20000.0 0.00618475
20021.8 0.00854637
20032.7 0.0110967
20043.6 0.0156018
20054.5 0.0243427
20060.0 0.0320628
20062.7 0.0374490
20065.4 0.0443183
20068.1 0.0533231
20069.5 0.0588678
20070.9 0.0653162
20072.2 0.0729282
20073.6 0.0818498
20074.9 0.0924625
20076.3 0.105196
20079.0 0.139618
20081.8 0.191971
20084.5 0.275013
20087.2 0.406749
20088.9 0.520553
20090.6 0.650685
20094.0 0.813358
20095.7 0.765366
20097.4 0.650409
20100.8 0.406495
20103.7 0.268438
20106.6 0.184419
20109.5 0.132447
20112.3 0.0989987
20118.1 0.0608531
20123.9 0.0413310
20129.6 0.0304949
20135.4 0.0251600
20138.3 0.0251199
20141.2 0.0302464
20144.0 0.0665585
20145.5 0.207581
20146.2 0.698190
20146.4 1.13730
20146.6 2.18019
20146.6 3.33723
20146.7 5.69894
20146.8 11.5594
20146.9 19.0822
20146.9 32.9374
20147.0 53.4506
20147.0 65.8617
20147.0 53.4504
20147.1 32.9372
20147.1 17.1384
20147.2 10.5655
20147.3 4.99891
20147.4 2.86657
20147.5 1.84997
20147.7 0.926190
20147.9 0.568476
20148.7 0.167569
20150.3 0.0529893
20153.6 0.0213555
20156.8 0.0145297
20160.1 0.0115901
20166.6 0.00867076
20173.1 0.00704105
20186.1 0.00510114
20199.1 0.00394140
20225.1 0.00262207
20251.1 0.00191609
20277.0 0.00149388
20303.0 0.00122361
20355.0 0.000920995
20407.0 0.000786910
20459.0 0.000757306
20511.0 0.000844432
20537.0 0.00102766
20550.0 0.00149572
20556.5 0.00315304
20559.7 0.00954370
20561.3 0.0339337
20562.1 0.123375
20562.5 0.433760
20562.7 1.31188
20562.8 3.21272
20562.9 6.01653
20562.9 13.8274
20563.0 27.6540
20563.1 13.8274
20563.1 6.01655
20563.2 3.21274
20563.3 1.22079
20563.5 0.398972
20563.9 0.112914
20564.8 0.0310374
20566.5 0.00881859
20569.9 0.00305170
20576.7 0.00162899
20590.3 0.00139343
20617.5 0.00174816
20631.1 0.00212212
20644.7 0.00274350
20651.5 0.00325892
20658.3 0.00417586
20665.1 0.00727065
20668.5 0.0174156
20670.2 0.0546787
20671.1 0.187753
20671.5 0.629466
20671.7 1.79239
20671.8 4.26101
20671.9 7.26789
20671.9 15.8114
20672.0 31.6183
20672.1 15.8114
20672.1 7.26794
20672.2 3.87829
20672.3 1.68151
20672.5 0.562092
20673.0 0.169894
20673.9 0.0499782
20675.7 0.0169894
20679.3 0.00885322
20686.5 0.00830626
20693.7 0.0105231
20700.9 0.0147942
20708.2 0.0229903
20711.8 0.0300773
20713.6 0.0349243
20715.4 0.0410482
20717.2 0.0489731
20719.0 0.0593220
20720.8 0.0732163
20722.6 0.0923561
20724.4 0.119652
20726.2 0.159255
20728.0 0.218281
20729.8 0.306148
20731.1 0.391912
20732.4 0.489091
20735.0 0.610858
20736.3 0.574727
20737.6 0.488203
20740.2 0.305450
20742.4 0.205158
20744.5 0.142658
20746.6 0.103364
20748.7 0.0778527
20753.0 0.0482199
20757.3 0.0327288
20761.5 0.0236951
20765.8 0.0180328
20774.3 0.0116400
20782.8 0.00836087
20791.3 0.00652848
20808.3 0.00492866
20825.3 0.00500699
20833.8 0.00579350
20842.3 0.00757194
20850.8 0.0116971
20855.1 0.0158812
20859.3 0.0235041
20861.5 0.0299005
20863.6 0.0395883
20865.7 0.0552599
20867.8 0.0828689
20868.9 0.105656
20870.0 0.139117
20871.0 0.191626
20872.1 0.280814
20873.2 0.452614
20873.7 0.602190
20874.2 0.838700
20874.7 1.24248
20875.3 2.00632
20875.5 2.67699
20875.8 3.65955
20876.1 5.26765
20876.3 7.72286
20876.7 12.4760
20877.0 15.5392
20877.3 12.3258
20877.7 7.72240
20878.0 4.77453
20878.3 3.11561
20878.7 2.15505
20879.0 1.58017
20879.3 1.19342
20879.6 0.937380
20880.3 0.616351
20880.9 0.432778
20881.6 0.321548
20882.9 0.197335
20884.2 0.133004
20885.5 0.0959897
20886.8 0.0726064
20888.1 0.0569033
20890.7 0.0377302
20893.3 0.0269661
20898.5 0.0159536
20903.8 0.0106956
20909.0 0.00778838
20919.4 0.00483805
20929.8 0.00344177
20940.2 0.00267326
20961.1 0.00190920
20982.0 0.00157639
21002.8 0.00143452
21044.5 0.00146758
21086.2 0.00192388
21107.1 0.00245130
21127.9 0.00344198
21138.4 0.00428360
21148.8 0.00557057
21159.2 0.00767772
21169.6 0.0114750
21174.9 0.0146443
21180.1 0.0194207
21185.3 0.0271416
21190.5 0.0407674
21193.1 0.0519144
21195.7 0.0684237
21198.3 0.0943607
21200.9 0.138265
21203.5 0.222130
21204.8 0.295330
21206.1 0.410916
21207.5 0.609868
21208.8 0.983284
21209.4 1.30299
21210.1 1.78828
21210.7 2.54954
21211.4 3.75118
21212.2 6.01506
21213.0 7.49920
21213.8 5.98515
21214.7 3.75063
21215.3 2.49158
21216.0 1.71635
21216.7 1.23392
21217.4 0.921930
21218.8 0.564219
21220.2 0.378057
21221.6 0.270109
21222.9 0.202315
21225.7 0.125469
21228.5 0.0853457
21231.2 0.0618393
21234.0 0.0469118
21236.7 0.0368813
21242.2 0.0245777
21247.8 0.0176522
21253.3 0.0133636
21258.8 0.0105377
21269.8 0.00716021
21280.9 0.00531325
21302.9 0.00350431
21325.0 0.00273841
21347.0 0.00242177
21391.2 0.00249969
21413.2 0.00284912
21435.3 0.00349075
21457.4 0.00462658
21479.4 0.00674828
21490.5 0.00854070
21501.5 0.0112602
21512.5 0.0156651
21523.6 0.0234806
21529.1 0.0298853
21534.6 0.0393903
21540.1 0.0543619
21545.6 0.0798639
21551.2 0.128784
21553.9 0.171948
21556.7 0.240370
21559.4 0.358676
21562.2 0.585903
21563.6 0.783977
21564.9 1.09004
21566.3 1.58129
21567.7 2.37042
21569.4 3.79505
21571.0 4.73575
21572.7 3.78484
21574.3 2.36258
21576.2 1.38245
21578.0 0.866962
21579.8 0.583645
21581.7 0.416883
21583.5 0.310870
21585.3 0.240489
21589.0 0.155554
21592.7 0.108626
21596.4 0.0800974
21603.7 0.0487289
21611.0 0.0328131
21618.4 0.0236617
21625.7 0.0179294
21633.1 0.0141091
21647.7 0.00950859
21662.4 0.00698069
21677.1 0.00548091
21691.8 0.00456831
21721.2 0.00383397
21750.5 0.00461955
21765.2 0.00642514
21779.9 0.0119420
21787.2 0.0196398
21790.9 0.0272441
21794.6 0.0409086
21798.2 0.0692425
21800.1 0.0965544
21801.9 0.144003
21803.7 0.238791
21804.7 0.325897
21805.6 0.468741
21806.5 0.733489
21807.0 0.957126
21807.4 1.29751
21807.9 1.84782
21808.3 2.80668
21808.8 4.62724
21809.2 8.17783
21809.6 13.0849
21810.0 16.3563
21810.4 13.0841
21810.8 8.17731
21811.1 5.15659
21811.5 3.45001
21811.8 2.42911
21812.2 1.78776
21812.9 1.07272
21813.6 0.710172
21814.3 0.501076
21815.0 0.373413
21816.4 0.230034
21817.8 0.155412
21819.2 0.112305
21820.6 0.0848538
21822.0 0.0665439
21824.8 0.0441484
21827.6 0.0315498
21830.4 0.0237668
21833.2 0.0186237
21838.9 0.0124601
21844.5 0.00904445
21855.7 0.00558110
21867.0 0.00393960
21878.2 0.00303276
21900.7 0.00211643
21945.6 0.00148758
21990.5 0.00139336
22035.5 0.00165393
22058.0 0.00200115
22080.4 0.00266473
22102.9 0.00407437
22114.1 0.00544142
22125.4 0.00784452
22136.6 0.0126820
22142.2 0.0171890
22147.8 0.0247945
22153.5 0.0391944
22156.3 0.0517372
22157.7 0.0604441
22159.1 0.0714532
22160.5 0.0858524
22161.9 0.104838
22163.3 0.130899
22164.7 0.167217
22166.1 0.220299
22167.5 0.299486
22168.9 0.421901
22170.3 0.611903
22172.2 0.979662
22174.0 1.22311
22174.9 1.15001
22175.9 0.977409
22177.7 0.611857
22179.4 0.391950
22181.1 0.262770
22182.8 0.185440
22184.5 0.136877
22187.8 0.0828169
22191.2 0.0555222
22194.6 0.0400787
22198.0 0.0306371
22204.7 0.0206293
22211.5 0.0168859
22214.9 0.0169188
22218.3 0.0188864
22221.6 0.0249792
22225.0 0.0441631
22226.7 0.0709634
22228.4 0.144297
22229.2 0.241352
22229.7 0.332310
22230.1 0.488236
22230.5 0.799174
22230.7 1.07199
22230.9 1.51134
22231.1 2.28179
22231.4 3.80192
22231.5 5.24715
22231.6 7.33670
22231.7 11.1907
22231.8 17.3005
22231.9 28.0266
22232.0 34.5205
22232.1 28.0261
22232.2 17.2247
22232.3 12.1558
22232.4 8.82558
22232.5 6.60377
22232.6 5.08594
22232.7 3.24496
22232.9 2.23291
22233.0 1.62465
22233.2 1.23301
22233.5 0.778332
22233.8 0.535492
22234.2 0.391099
22234.8 0.235487
22235.4 0.157935
22236.1 0.113802
22237.4 0.0680410
22239.9 0.0336822
22242.5 0.0210794
22247.6 0.0116263
22252.7 0.00809030
22257.9 0.00633416
22263.0 0.00532120
22273.2 0.00425633
22314.2 0.00396395
22334.7 0.00546255
22344.9 0.00708938
22355.2 0.0100380
22365.4 0.0160417
22370.6 0.0216221
22375.7 0.0309916
22380.8 0.0484972
22383.4 0.0634683
22384.6 0.0736922
22385.9 0.0865723
22387.2 0.103081
22388.5 0.124657
22389.8 0.153483
22391.0 0.192952
22392.3 0.248443
22393.6 0.328539
22394.9 0.446495
22396.2 0.619773
22397.1 0.793032
22398.1 0.991011
22400.0 1.23836
22401.0 1.16550
22401.9 0.990780
22403.8 0.619539
22405.5 0.411328
22407.1 0.283301
22408.7 0.203718
22410.3 0.152554
22413.5 0.0935117
22416.7 0.0628898
22419.9 0.0450772
22423.1 0.0339253
22429.6 0.0212719
22436.0 0.0146497
22442.4 0.0107732
22455.3 0.00664432
22468.1 0.00461097
22481.0 0.00346692
22506.7 0.00230340
22532.4 0.00177321
22558.1 0.00151544
22609.5 0.00140002
22660.9 0.00169314
22686.6 0.00207403
22712.3 0.00278435
22738.0 0.00424777
22750.9 0.00562478
22763.7 0.00797637
22776.6 0.0125055
22783.0 0.0165350
22789.4 0.0230102
22792.6 0.0278480
22795.9 0.0343949
22797.5 0.0385897
22799.1 0.0435648
22800.7 0.0495983
22802.3 0.0569014
22803.9 0.0659559
22805.5 0.0772583
22807.1 0.0915525
22808.7 0.109745
22810.3 0.133487
22811.9 0.164397
22813.5 0.205308
22815.1 0.258279
22816.8 0.330231
22818.6 0.412444
22822.0 0.515149
22823.7 0.484907
22825.4 0.412385
22828.9 0.258328
22832.9 0.147148
22837.0 0.0910314
22841.0 0.0610669
22845.1 0.0437295
22849.1 0.0329710
22853.2 0.0259124
22861.3 0.0176552
22869.4 0.0133528
22877.5 0.0110188
22893.7 0.00950562
22909.9 0.0112779
22918.0 0.0140508
22926.1 0.0195436
22930.1 0.0242624
22934.2 0.0314605
22938.2 0.0431174
22942.3 0.0636904
22946.3 0.105005
22948.4 0.143401
22950.4 0.207485
22952.4 0.327539
22953.4 0.429950
22954.4 0.587973
22955.5 0.851827
22956.5 1.32206
22957.5 2.25765
22958.0 3.08325
22958.5 4.27449
22959.3 6.86282
22960.0 8.56038
22960.8 6.82565
22961.5 4.27391
22962.3 2.63725
22963.0 1.72726
22963.8 1.19252
22964.5 0.868850
22965.2 0.656008
22966.0 0.513169
22967.5 0.336656
22969.0 0.237308
22970.5 0.176156
22973.4 0.108284
22976.4 0.0733039
22979.4 0.0530885
22982.4 0.0402929
22985.3 0.0317376
22991.3 0.0212964
22997.2 0.0154413
23003.2 0.0118282
23009.1 0.00944611
23021.0 0.00661302
23032.9 0.00508991
23056.7 0.00375400
23080.6 0.00367456
23092.5 0.00414504
23104.4 0.00527023
23116.3 0.00792408
23122.2 0.0106271
23128.2 0.0155522
23131.1 0.0196772
23134.1 0.0258873
23137.1 0.0359294
23140.1 0.0535708
23141.6 0.0679680
23143.0 0.0892124
23144.5 0.122414
23146.0 0.177975
23147.5 0.283026
23148.3 0.374697
23149.0 0.515841
23149.7 0.755612
23150.5 1.19006
23150.9 1.55047
23151.2 2.08103
23151.6 2.88172
23152.0 4.09087
23152.5 6.55115
23153.0 8.19369
23153.5 6.55062
23154.0 4.09052
23154.5 2.58430
23155.0 1.72671
23155.5 1.21460
23156.0 0.893326
23156.9 0.535635
23157.9 0.354517
23158.9 0.251283
23159.8 0.187198
23161.7 0.115336
23163.7 0.0780461
23165.6 0.0564740
23167.5 0.0428262
23169.4 0.0336513
23173.3 0.0224468
23177.1 0.0161581
23181.0 0.0122694
23184.8 0.00969759
23192.5 0.00661039
23200.2 0.00490232
23215.5 0.00317537
23246.3 0.00195811
23277.0 0.00165058
23307.8 0.00180387
23323.1 0.00211563
23338.5 0.00275402
23353.9 0.00415421
23361.6 0.00552693
23369.2 0.00794279
23376.9 0.0127833
23380.8 0.0172432
23384.6 0.0246848
23388.5 0.0384918
23390.4 0.0502058
23392.3 0.0681491
23393.3 0.0808815
23394.2 0.0974215
23395.2 0.119357
23396.1 0.149119
23397.1 0.190491
23398.1 0.249372
23399.0 0.334604
23400.0 0.457446
23400.7 0.586024
23401.5 0.730843
23403.0 0.912775
23403.8 0.858561
23404.5 0.730720
23406.0 0.457326
23407.8 0.258281
23409.6 0.158515
23411.4 0.105074
23413.2 0.0743347
23415.0 0.0551032
23416.8 0.0424866
23420.4 0.0274681
23424.0 0.0192362
23427.6 0.0142721
23434.7 0.00886278
23441.9 0.00613919
23449.1 0.00459187
23463.4 0.00302386
23477.8 0.00238195
23492.1 0.00236147
23499.3 0.00279231
23506.5 0.00430706
23513.7 0.0127980
23517.2 0.0452263
23518.1 0.0771434
23519.0 0.160554
23519.5 0.267401
23519.9 0.531089
23520.2 0.846816
23520.4 1.49961
23520.5 2.13794
23520.6 3.25379
23520.7 5.38601
23520.8 7.37233
23520.8 9.84030
23520.9 15.6732
23521.0 19.6798
23521.1 15.6730
23521.2 9.84020
23521.3 6.62094
23521.3 4.65105
23521.5 2.56392
23521.6 1.59296
23521.7 1.07747
23522.0 0.571829
23522.3 0.357909
23522.9 0.176016
23523.5 0.104501
23524.6 0.0494250
23525.7 0.0291048
23530.3 0.00838092
23539.4 0.00293416
23557.6 0.00154231
23575.7 0.00160809
23584.8 0.00298555
23589.4 0.00862975
23591.7 0.0303558
23592.8 0.111333
23593.4 0.391376
23593.6 1.19876
23593.8 2.99397
23593.9 5.73544
23593.9 14.0373
23594.0 28.0738
23594.1 14.0373
23594.1 6.39078
23594.2 3.25202
23594.4 1.26507
23594.6 0.416593
23595.2 0.121004
23596.2 0.0332917
23598.4 0.00937998
23602.7 0.00312539
23611.4 0.00152521
23628.7 0.00113078
23663.3 0.00113365
23697.9 0.00135550
23732.5 0.00182537
23767.1 0.00283514
23784.4 0.00380387
23801.7 0.00547762
23819.0 0.00873220
23827.7 0.0116468
23836.3 0.0163608
23840.6 0.0198887
23845.0 0.0246788
23847.1 0.0277592
23849.3 0.0314258
23851.4 0.0358520
23853.6 0.0412530
23855.8 0.0479552
23857.9 0.0563000
23860.1 0.0668726
23862.3 0.0804512
23864.4 0.0982123
23866.6 0.121473
23868.7 0.152188
23870.9 0.192356
23873.2 0.245991
23875.5 0.306874
23880.0 0.382893
23882.3 0.360416
23884.6 0.306784
23889.1 0.192346
23892.2 0.137715
23895.3 0.100993
23898.4 0.0762520
23901.5 0.0594514
23907.7 0.0408875
23909.3 0.0397939
23910.8 0.0435328
23912.4 0.0758153
23913.2 0.202462
23913.6 0.627422
23913.7 1.74920
23913.8 4.14308
23913.9 7.46621
23913.9 13.4806
23914.0 26.9352
23914.1 13.4804
23914.1 5.16236
23914.2 2.37235
23914.4 0.860466
23914.7 0.283933
23915.3 0.0955016
23916.6 0.0415897
23919.1 0.0249405
23921.6 0.0200702
23924.1 0.0172760
23934.1 0.0112243
23944.2 0.00806934
23954.2 0.00613111
23974.2 0.00395077
23994.3 0.00281967
24014.3 0.00216386
24034.4 0.00175650
24074.5 0.00131937
24114.6 0.00114427
24154.7 0.00114205
24174.7 0.00122704
24194.8 0.00146485
24214.8 0.00255258
24224.9 0.00654880
24229.9 0.0218996
24232.4 0.0804086
24233.6 0.291346
24234.0 0.495310
24234.3 0.994256
24234.4 1.61037
24234.6 2.89014
24234.7 4.28518
24234.7 6.92470
24234.8 12.6317
24234.9 18.0384
24234.9 26.3069
24235.0 42.1309
24235.0 52.3544
24235.1 42.1307
24235.1 26.0489
24235.2 15.0240
24235.2 9.91539
24235.3 5.07031
24235.4 3.02459
24235.5 1.99600
24235.7 1.02153
24235.9 0.630958
24236.3 0.304540
24236.7 0.178944
24238.4 0.0488678
24241.6 0.0137227
24248.2 0.00465262
24261.2 0.00254456
24274.3 0.00244609
24287.3 0.00285497
24300.4 0.00387454
24306.9 0.00486647
24313.4 0.00660223
24320.0 0.0101155
24323.2 0.0134290
24326.5 0.0191473
24329.8 0.0304027
24331.4 0.0405931
24333.0 0.0573385
24334.6 0.0876325
24335.5 0.113006
24336.3 0.150559
24337.1 0.210751
24337.9 0.311251
24338.7 0.496259
24339.5 0.842790
24340.3 1.34924
24341.0 1.68012
24341.7 1.34185
24342.5 0.842789
24343.2 0.518379
24344.0 0.337229
24344.7 0.233086
24345.4 0.170248
24346.2 0.129009
24346.9 0.101074
24348.4 0.0671568
24349.9 0.0480103
24351.3 0.0363547
24354.3 0.0234265
24357.2 0.0168896
24360.2 0.0131899
24366.1 0.00952735
24372.0 0.00806226
24377.9 0.00761988
24389.7 0.00858691
24401.5 0.0124019
24407.4 0.0164624
24413.3 0.0238732
24416.2 0.0300480
24419.2 0.0393418
24422.1 0.0542495
24425.1 0.0803716
24428.0 0.132505
24429.5 0.180786
24431.0 0.260874
24432.4 0.410297
24433.2 0.537806
24433.9 0.730577
24434.7 1.04982
24435.4 1.60659
24436.1 2.70390
24436.5 3.64158
24436.9 4.95362
24437.4 7.93184
24438.0 9.86334
24438.6 7.87660
24439.2 4.91055
24439.7 3.06634
24440.3 2.02988
24440.8 1.41020
24441.4 1.03342
24441.9 0.782803
24442.5 0.614549
24443.6 0.406377
24444.7 0.287292
24445.8 0.214337
24448.0 0.132402
24450.2 0.0900873
24452.4 0.0656751
24454.7 0.0502861
24456.9 0.0399823
24461.3 0.0274958
24465.7 0.0205916
24474.6 0.0137732
24492.2 0.00972693
24509.9 0.0101245
24527.6 0.0137809
24545.3 0.0240134
24549.8 0.0288956
24554.2 0.0355717
24556.4 0.0398601
24558.6 0.0449972
24560.8 0.0512100
24563.0 0.0588033
24565.2 0.0682385
24567.4 0.0800030
24569.7 0.0949272
24571.9 0.114119
24574.1 0.139123
24576.3 0.172048
24578.5 0.215594
24580.7 0.272650
24583.0 0.348905
24585.4 0.435673
24590.0 0.544271
24592.3 0.512068
24594.7 0.435386
24599.3 0.272297
24602.3 0.198457
24605.3 0.147628
24611.2 0.0880950
24617.2 0.0574781
24623.2 0.0402156
24629.1 0.0296299
24635.1 0.0227348
24647.0 0.0146136
24659.0 0.0102166
24670.9 0.00757658
24694.7 0.00470533
24718.6 0.00326335
24742.4 0.00244562
24790.2 0.00163434
24837.9 0.00135792
24861.7 0.00137628
24885.6 0.00155486
24909.4 0.00207967
24921.4 0.00264959
24933.3 0.00371792
24945.2 0.00602506
24951.2 0.00831880
24957.1 0.0124557
24960.1 0.0159152
24963.1 0.0211207
24966.1 0.0295062
24969.1 0.0442951
24970.6 0.0563369
24972.1 0.0741124
24973.5 0.101911
24975.0 0.148897
24976.5 0.237532
24977.3 0.315110
24978.0 0.434937
24978.8 0.639449
24979.5 1.01272
24979.9 1.33494
24980.3 1.80290
24980.6 2.51650
24981.0 3.60669
24981.5 5.79204
24982.0 7.21019
24982.5 5.74595
24983.0 3.60641
24983.5 2.29229
24984.0 1.52633
24984.4 1.07066
24984.9 0.790588
24985.8 0.474222
24986.7 0.313869
24987.7 0.221660
24988.6 0.165135
24990.5 0.101681
24992.3 0.0687157
24994.2 0.0496374
24996.1 0.0375104
24997.9 0.0294075
25001.7 0.0195077
25005.4 0.0139397
25009.1 0.0105009
25012.9 0.00822947
25020.3 0.00550958
25027.8 0.00400487
25042.7 0.00248437
25057.6 0.00177217
25072.5 0.00138694
25102.4 0.00103011
25132.2 0.000948681
25162.1 0.00116741
25191.9 0.00285644
25206.8 0.00970708
25210.5 0.0166777
25214.3 0.0360510
25216.1 0.0623181
25218.0 0.132865
25218.9 0.224477
25219.4 0.311788
25219.9 0.457553
25220.3 0.743130
25220.6 0.990115
25220.8 1.38145
25221.0 2.09109
25221.3 3.40696
25221.4 4.61114
25221.5 6.30987
25221.6 9.28062
25221.7 13.7727
25221.9 21.9731
25222.0 27.5458
25222.1 21.9728
25222.3 13.7725
25222.4 8.97154
25222.5 5.94345
25222.7 4.15088
25222.8 3.10493
25223.0 1.87071
25223.3 1.24119
25223.5 0.869721
25223.8 0.649191
25224.3 0.400500
25224.8 0.269340
25225.3 0.194568
25226.3 0.115118
25228.3 0.0536588
25230.3 0.0311084
25234.4 0.0143871
25238.4 0.00837817
25246.5 0.00401017
25254.5 0.00245970
25270.6 0.00133766
25286.7 0.000940531
25351.2 0.000569720
25415.6 0.000555501
25480.1 0.000659050
25544.5 0.000929955
25576.7 0.00119999
25608.9 0.00167834
25673.4 0.00525225
25681.5 0.00661727
25689.5 0.00866091
25697.6 0.0119445
25705.6 0.0177296
25709.6 0.0224631
25713.7 0.0294918
25717.7 0.0405902
25721.7 0.0595785
25725.8 0.0963877
25727.8 0.129348
25729.8 0.182252
25731.8 0.275765
25733.8 0.460160
25734.8 0.627156
25735.8 0.891184
25736.8 1.33878
25737.8 2.09724
25738.9 3.36141
25740.0 4.19388
25741.1 3.34860
25742.2 2.09704
25743.4 1.19957
25744.7 0.740761
25746.0 0.493894
25747.2 0.350981
25748.5 0.260794
25749.7 0.201123
25752.2 0.130216
25754.8 0.0912329
25757.3 0.0678111
25762.3 0.0422886
25767.3 0.0296388
25772.4 0.0226720
25782.4 0.0164722
25792.5 0.0158390
25797.5 0.0174968
25802.5 0.0212661
25807.6 0.0290506
25810.1 0.0358673
25812.6 0.0462802
25813.8 0.0536508
25815.1 0.0631498
25816.4 0.0756045
25817.6 0.0920915
25818.9 0.114704
25820.1 0.145774
25821.4 0.189649
25822.6 0.250181
25823.7 0.319499
25824.8 0.397962
25827.0 0.495791
25828.1 0.466422
25829.2 0.396966
25831.4 0.249718
25833.6 0.154270
25835.8 0.101319
25838.0 0.0707623
25840.2 0.0522163
25844.6 0.0320662
25849.0 0.0221432
25853.4 0.0165796
25857.8 0.0131990
25866.6 0.00955354
25875.4 0.00788542
25884.2 0.00719206
25901.9 0.00759092
25919.5 0.0105931
25928.3 0.0139678
25937.1 0.0201786
25941.5 0.0253405
25945.9 0.0330250
25950.3 0.0451971
25954.7 0.0659671
25959.1 0.105876
25961.3 0.141009
25963.5 0.196898
25965.8 0.293717
25968.0 0.478766
25969.1 0.639820
25970.2 0.888311
25971.3 1.28647
25972.4 1.93090
25973.7 3.09357
25975.0 3.86059
25976.3 3.08365
25977.7 1.93047
25979.1 1.15783
25980.5 0.738863
25981.9 0.503298
25983.2 0.362639
25984.6 0.272036
25986.0 0.211486
25988.8 0.137725
25991.6 0.0965201
25994.4 0.0714388
26000.0 0.0437010
26000.0 0.106842
30000.0 0.0956345
35000.0 0.0848639
40000.0 0.0765978
50000.0 0.0648383
60000.0 0.0575059
72000.0 0.0515690
80000.0 0.0487179
99999.9 0.0431124
100000 0.0433780
120000 0.0374760
140000 0.0342000
160000 0.0328000
200000 0.0320000
225000 0.0315000
250000 0.0310000
275000 0.0310110
300000 0.0310230
325000 0.0308130
350000 0.0306030
400000 0.0306460
450000 0.0310380
500000 0.0316970
541010 0.0302928
550000 0.0299850
600000 0.0165590
650000 0.0152250
700000 0.0148850
702120 0.0148566
750000 0.0142140
800000 0.0142690
850000 0.0145480
900000 0.0149520
950000 0.0154090
1.00000E+06 0.0158660
1.07450E+06 0.0156738
1.07454E+06 0.0156737
1.10000E+06 0.0156080
1.14760E+06 0.0137083
1.20000E+06 0.0116170
1.30000E+06 0.0108720
1.40000E+06 0.0110550
1.47870E+06 0.0111864
1.50000E+06 0.0112220
1.51980E+06 0.0111464
1.60000E+06 0.0108400
1.62360E+06 0.0107208
1.62363E+06 0.0107207
1.70000E+06 0.0103350
1.80000E+06 0.0102740
1.90000E+06 0.0105765
2.00000E+06 0.0108790
2.25000E+06 0.0109410
2.50000E+06 0.0102440
2.75000E+06 0.00935720
3.00000E+06 0.00839560
3.20120E+06 0.00760287
3.25000E+06 0.00741060
3.50000E+06 0.00642530
3.75000E+06 0.00550970
4.00000E+06 0.00466390
4.25000E+06 0.00392260
4.50000E+06 0.00326870
4.75000E+06 0.00266870
5.00000E+06 0.00218340
5.25000E+06 0.00178940
5.50000E+06 0.00147100
5.52970E+06 0.00143933
5.75000E+06 0.00120440
6.00000E+06 0.000994090
6.25000E+06 0.000825040
6.50000E+06 0.000695840
6.75000E+06 0.000614940
7.00000E+06 0.000534040
7.25000E+06 0.000486450
7.50000E+06 0.000455980
7.75000E+06 0.000439160
8.00000E+06 0.000433290
8.37420E+06 0.000442370
8.37420E+06 0.000442370
8.65000E+06 0.000459550
9.01290E+06 0.000492950
9.30000E+06 0.000526270
9.63340E+06 0.000570760
1.00000E+07 0.000624850
1.02500E+07 0.000663700
1.05000E+07 0.000703420
1.07500E+07 0.000743400
1.10000E+07 0.000783130
1.12600E+07 0.000823710
1.16000E+07 0.000874950
1.18820E+07 0.000915420
1.20000E+07 0.000931720
1.22500E+07 0.000964940
1.25000E+07 0.000996280
1.27500E+07 0.00102570
1.30000E+07 0.00105310
1.32500E+07 0.00107870
1.35000E+07 0.00110230
1.37500E+07 0.00112420
1.40000E+07 0.00114440
1.43600E+07 0.00117070
1.43606E+07 0.00117074
1.46500E+07 0.00118970
1.50000E+07 0.00121020
1.53000E+07 0.00122580
1.56500E+07 0.00124190
1.60000E+07 0.00125580
1.63000E+07 0.00126600
1.66500E+07 0.00127610
1.70000E+07 0.00128440
1.73000E+07 0.00129020
1.76500E+07 0.00129580
1.80000E+07 0.00130020
1.85000E+07 0.00130490
1.90000E+07 0.00130830
1.95000E+07 0.00131070
2.00000E+07 0.00131220