Sn-116(n,g) ENDF/B-VII.1
Energy(eV) XS(b)
1.00000E-05 6.41843
1.25000E-05 5.74082
1.50000E-05 5.24062
2.00000E-05 4.53851
2.75000E-05 3.87046
3.50000E-05 3.43079
4.25000E-05 3.11340
5.00000E-05 2.87041
6.25000E-05 2.56737
7.50000E-05 2.34368
0.000100000 2.02969
0.000125000 1.81541
0.000150000 1.65723
0.000200000 1.43521
0.000275000 1.22395
0.000350000 1.08492
0.000425000 0.984549
0.000500000 0.907710
0.000625000 0.811882
0.000750000 0.741145
0.00100000 0.641854
0.00125000 0.574094
0.00150000 0.524076
0.00200000 0.453867
0.00275000 0.387064
0.00350000 0.343100
0.00425000 0.311362
0.00500000 0.287065
0.00625000 0.256765
0.00750000 0.234398
0.0100000 0.203003
0.0125000 0.181579
0.0150000 0.165766
0.0200000 0.143570
0.0253000 0.127661
0.0314750 0.114467
0.0376500 0.104671
0.0500000 0.0908482
0.0625000 0.0812746
0.0750000 0.0742091
0.100000 0.0642946
0.125000 0.0575316
0.150000 0.0525415
0.200000 0.0455414
0.275000 0.0388880
0.350000 0.0345151
0.500000 0.0289522
0.750000 0.0237417
1.00000 0.0206501
1.50000 0.0170079
2.00000 0.0148585
2.75000 0.0128395
3.50000 0.0115331
5.00000 0.00991194
7.50000 0.00847132
10.0000 0.00768842
15.0000 0.00692082
20.0000 0.00664436
27.5000 0.00669175
35.0000 0.00712062
50.0000 0.00914904
62.5000 0.0128290
68.7500 0.0160425
75.0000 0.0210482
81.2500 0.0294422
87.5000 0.0451541
90.6250 0.0587710
93.7500 0.0801992
96.8750 0.116883
100.000 0.187906
101.392 0.243202
102.785 0.327894
104.177 0.467376
105.570 0.721894
106.266 0.936646
106.962 1.26518
107.658 1.80508
108.006 2.21608
108.354 2.78644
108.441 2.96384
108.528 3.15859
108.615 3.37328
108.702 3.61073
108.790 3.87460
108.877 4.16825
108.964 4.49674
109.051 4.86579
109.138 5.28290
109.225 5.75566
109.312 6.29505
109.399 6.91422
109.573 8.46367
109.747 10.5992
109.921 13.6625
110.095 18.2740
110.269 25.6937
110.356 31.2212
110.443 38.7438
110.530 49.3627
110.617 64.9947
110.704 89.3844
110.791 130.475
110.835 162.442
110.878 207.608
110.922 274.224
110.965 377.961
111.009 551.196
111.052 867.951
111.074 1131.10
111.096 1516.11
111.117 2098.44
111.139 2970.27
111.170 4728.47
111.200 5889.92
111.231 4695.37
111.262 2919.85
111.298 1673.00
111.333 1035.51
111.369 690.346
111.404 489.334
111.440 363.076
111.475 279.598
111.546 179.693
111.618 124.852
111.689 91.6563
111.831 55.3186
111.973 36.9292
112.115 26.3809
112.257 19.7715
112.399 15.3659
112.684 10.0379
112.968 7.06412
113.252 5.23781
113.537 4.03676
114.105 2.60579
114.674 1.81866
115.242 1.34017
115.811 1.02788
116.948 0.658767
118.085 0.457470
119.223 0.335890
120.360 0.256970
122.634 0.164343
124.909 0.114373
127.183 0.0846535
129.458 0.0658734
134.006 0.0460078
136.281 0.0420681
138.555 0.0424372
140.830 0.0506050
141.967 0.0612216
143.104 0.0823227
143.673 0.100790
144.241 0.129538
144.810 0.177391
145.379 0.265204
145.663 0.339359
145.947 0.452641
146.232 0.638112
146.516 0.972835
146.658 1.25180
146.800 1.67258
146.942 2.35137
147.084 3.54897
147.156 4.52589
147.227 5.96984
147.298 8.23193
147.369 12.0576
147.440 19.3078
147.475 25.6363
147.511 35.5549
147.547 52.3900
147.582 83.7171
147.600 110.294
147.618 149.921
147.635 211.486
147.653 306.436
147.677 491.249
147.700 614.874
147.724 491.321
147.747 306.528
147.773 180.844
147.798 114.255
147.824 77.2976
147.849 55.3007
147.875 41.2961
147.900 31.9636
147.951 20.7029
148.002 14.4525
148.053 10.6536
148.155 6.46708
148.257 4.33611
148.359 3.10962
148.462 2.33883
148.564 1.82409
148.768 1.19977
148.972 0.850547
149.176 0.635566
149.380 0.493881
149.788 0.324549
150.197 0.231047
150.605 0.173957
151.013 0.136518
151.829 0.0919239
152.646 0.0672910
154.279 0.0421945
155.912 0.0301067
157.545 0.0232279
160.810 0.0158505
164.076 0.0119935
167.342 0.00961416
173.874 0.00680107
180.405 0.00517337
186.937 0.00410786
200.000 0.00280566
218.750 0.00182224
237.500 0.00129099
256.250 0.000971596
275.000 0.000765498
312.500 0.000527230
350.000 0.000403913
387.500 0.000337102
425.000 0.000304215
462.500 0.000298599
500.000 0.000327570
533.136 0.000412875
566.272 0.000682320
582.841 0.00106781
599.409 0.00217581
607.693 0.00373008
611.835 0.00529371
615.977 0.00817125
620.119 0.0143802
622.190 0.0206125
624.261 0.0320558
625.296 0.0417588
626.332 0.0566643
627.367 0.0812804
628.403 0.126309
628.921 0.164354
629.438 0.222579
629.956 0.318290
630.474 0.492115
630.733 0.637969
630.992 0.859707
631.250 1.22074
631.509 1.86732
631.639 2.40273
631.768 3.20505
631.898 4.48822
632.027 6.72401
632.157 11.1562
632.221 15.2070
632.286 21.9102
632.351 34.1523
632.383 44.4447
632.415 59.9589
632.448 84.8968
632.480 127.667
632.512 207.679
632.545 364.380
632.572 583.362
632.600 728.618
632.628 582.533
632.655 364.403
632.684 221.857
632.712 143.287
632.740 98.3880
632.768 71.1140
632.796 53.5527
632.825 41.6708
632.881 27.1846
632.937 19.0747
632.994 14.1010
633.107 8.58723
633.219 5.76743
633.332 4.13703
633.445 3.11097
633.558 2.42392
633.784 1.58974
634.009 1.12243
634.235 0.834539
634.460 0.644734
634.912 0.417918
635.363 0.292782
635.814 0.216504
636.265 0.166602
637.168 0.107434
638.070 0.0750323
638.973 0.0553845
639.875 0.0425799
641.680 0.0274540
643.485 0.0192008
647.095 0.0109599
650.705 0.00712993
654.315 0.00504447
661.534 0.00296844
675.974 0.00149680
690.413 0.00101492
704.853 0.000862759
712.072 0.000876415
719.292 0.000977740
726.512 0.00126409
730.122 0.00157020
733.732 0.00214130
737.341 0.00337616
739.146 0.00461341
740.951 0.00688118
741.854 0.00880244
742.756 0.0117533
743.659 0.0166284
744.561 0.0255574
745.012 0.0331164
745.464 0.0447095
745.915 0.0638227
746.366 0.0987117
746.592 0.128146
746.817 0.173108
747.043 0.246837
747.269 0.380348
747.381 0.492010
747.494 0.661257
747.607 0.935700
747.720 1.42457
747.776 1.82671
747.833 2.42634
747.889 3.37711
747.945 5.01636
748.002 8.20597
748.030 11.0679
748.058 15.7077
748.072 19.1837
748.086 23.9246
748.093 26.9884
748.100 30.6052
748.108 35.0429
748.115 40.3935
748.122 47.1118
748.129 55.4175
748.136 66.1295
748.143 79.7484
748.150 97.8108
748.157 121.356
748.164 153.091
748.171 194.275
748.178 248.756
748.186 310.942
748.200 387.875
748.207 364.983
748.215 310.083
748.229 193.601
748.244 119.816
748.258 78.4303
748.272 54.3620
748.287 39.5550
748.301 29.8780
748.315 23.3393
748.344 15.3087
748.373 10.7681
748.401 7.98161
748.458 4.87388
748.516 3.27889
748.573 2.35461
748.630 1.77204
748.688 1.38152
748.802 0.907014
748.917 0.640765
749.031 0.476633
749.146 0.368377
749.375 0.238983
749.604 0.167556
749.834 0.124014
750.063 0.0955293
750.521 0.0617659
750.980 0.0432845
751.438 0.0320855
751.896 0.0247946
752.813 0.0161971
753.730 0.0115248
754.647 0.00871540
755.563 0.00690494
757.397 0.00481942
759.230 0.00375628
762.897 0.00297423
766.564 0.00329238
770.231 0.00546955
772.065 0.00882442
773.898 0.0185540
774.815 0.0321327
775.274 0.0456962
775.732 0.0704384
776.190 0.123110
776.419 0.175209
776.649 0.269308
776.763 0.347797
776.878 0.466441
776.992 0.658109
777.107 0.997647
777.164 1.27539
777.222 1.68726
777.279 2.33541
777.336 3.44081
777.394 5.55532
777.422 7.42232
777.451 10.3805
777.480 15.4904
777.508 25.2420
777.522 33.7095
777.537 46.7442
777.551 67.5677
777.565 101.153
777.583 162.039
777.600 202.323
777.617 161.669
777.635 101.157
777.647 71.5695
777.659 51.8642
777.671 38.7421
777.684 29.7937
777.708 18.9631
777.732 13.0409
777.757 9.46935
777.781 7.17305
777.830 4.51495
777.879 3.09369
777.927 2.25104
777.976 1.71038
778.025 1.34318
778.122 0.890639
778.220 0.633435
778.317 0.473471
778.415 0.367370
778.610 0.239565
778.804 0.168580
779.194 0.0965557
779.584 0.0625869
779.974 0.0439234
780.754 0.0251664
782.313 0.0115971
783.872 0.00678916
786.991 0.00330962
790.110 0.00206682
796.348 0.00115075
802.585 0.000812931
815.061 0.000554811
827.536 0.000458233
852.486 0.000395802
877.437 0.000402789
902.387 0.000472745
927.338 0.000705086
939.813 0.00103552
952.288 0.00197933
958.526 0.00329815
964.763 0.00705482
967.882 0.0122924
969.442 0.0175392
971.001 0.0271534
972.560 0.0477664
973.340 0.0683215
974.120 0.105793
974.510 0.137347
974.900 0.185474
975.289 0.264235
975.679 0.406329
975.874 0.524818
976.069 0.703696
976.264 0.992332
976.459 1.50278
976.556 1.91987
976.654 2.53748
976.751 3.50748
976.849 5.15486
976.946 8.29416
976.995 11.0431
977.044 15.3893
977.093 22.8283
977.141 36.8778
977.166 48.9624
977.190 67.2688
977.214 96.1867
977.239 141.792
977.269 226.881
977.300 283.612
977.331 226.886
977.361 141.799
977.384 99.3729
977.406 71.5507
977.428 53.1840
977.450 40.7453
977.494 25.7976
977.538 17.6562
977.583 12.7848
977.627 9.67060
977.715 6.07017
977.804 4.15327
977.892 3.01811
977.981 2.29101
978.069 1.79779
978.246 1.19094
978.423 0.846399
978.600 0.632272
978.776 0.490267
979.130 0.319394
979.484 0.224521
979.838 0.166436
980.191 0.128316
980.899 0.0829739
981.606 0.0580697
983.021 0.0330576
984.436 0.0213737
985.851 0.0149898
988.681 0.00860909
994.340 0.00402436
1000.00 0.00241294
1016.22 0.00104523
1032.45 0.000700319
1048.67 0.000571962
1064.89 0.000518036
1097.34 0.000496357
1129.78 0.000528682
1194.67 0.000725311
1227.12 0.000980794
1235.23 0.00111529
1243.34 0.00138210
1251.45 0.00246382
1255.51 0.00640015
1256.52 0.0103963
1257.54 0.0216395
1258.05 0.0371066
1258.55 0.0801528
1258.81 0.138601
1259.06 0.296474
1259.19 0.503967
1259.25 0.698776
1259.31 1.03261
1259.38 1.69078
1259.41 2.28209
1259.44 3.20333
1259.47 4.87146
1259.50 8.05160
1259.52 10.9876
1259.53 15.6929
1259.55 23.6222
1259.57 37.0364
1259.58 59.3447
1259.60 73.9657
1259.62 59.3453
1259.63 36.9293
1259.65 21.2199
1259.67 13.3455
1259.69 8.83498
1259.71 6.32667
1259.73 4.66688
1259.75 3.62049
1259.79 2.35311
1259.83 1.63362
1259.87 1.19876
1259.94 0.727381
1260.02 0.485387
1260.10 0.348175
1260.25 0.204269
1260.56 0.0947845
1260.87 0.0549276
1261.49 0.0256014
1262.11 0.0151339
1264.58 0.00489244
1269.53 0.00239124
1274.48 0.00204254
1279.43 0.00204267
1289.33 0.00241033
1299.22 0.00322946
1309.12 0.00500396
1314.07 0.00676598
1319.02 0.00997653
1321.49 0.0126889
1323.96 0.0168456
1326.44 0.0237021
1328.91 0.0362429
1330.15 0.0468459
1331.39 0.0630965
1332.62 0.0898611
1333.86 0.138649
1334.48 0.179774
1335.10 0.242431
1335.72 0.345170
1336.33 0.530432
1336.64 0.685525
1336.95 0.919337
1337.11 1.08453
1337.26 1.29707
1337.42 1.58092
1337.57 1.96628
1337.73 2.51592
1337.80 2.88393
1337.88 3.33233
1337.96 3.90194
1338.04 4.61999
1338.11 5.55518
1338.19 6.80419
1338.27 8.55014
1338.35 11.0193
1338.42 14.7188
1338.50 20.6062
1338.58 30.9291
1338.62 39.1516
1338.65 50.5954
1338.69 68.0421
1338.73 94.3567
1338.77 137.876
1338.81 206.920
1338.85 332.041
1338.90 415.854
1338.95 332.017
1338.99 206.896
1339.04 120.886
1339.09 75.7359
1339.15 50.9476
1339.20 36.3043
1339.25 27.0602
1339.30 20.8956
1339.40 13.5405
1339.50 9.42982
1339.60 6.95378
1339.81 4.21231
1340.01 2.81488
1340.21 2.01531
1340.42 1.51346
1340.62 1.17808
1341.03 0.771113
1341.43 0.544167
1341.84 0.404258
1342.24 0.312378
1343.06 0.202604
1343.87 0.142124
1344.68 0.105306
1345.50 0.0812700
1347.12 0.0527726
1348.75 0.0372037
1350.37 0.0277746
1352.00 0.0216459
1355.25 0.0144313
1358.50 0.0105224
1361.75 0.00818152
1365.00 0.00667977
1371.50 0.00496218
1378.01 0.00409153
1391.01 0.00339631
1417.02 0.00355671
1443.03 0.00488704
1456.03 0.00614911
1469.04 0.00813208
1482.04 0.0114315
1495.04 0.0174646
1501.55 0.0225454
1508.05 0.0302912
1514.55 0.0429517
1521.05 0.0657699
1524.30 0.0847669
1525.93 0.0975380
1527.55 0.113435
1528.37 0.122894
1529.18 0.133593
1529.99 0.145758
1530.81 0.159649
1531.62 0.175653
1532.43 0.194194
1533.24 0.215839
1534.06 0.241288
1534.87 0.271562
1535.68 0.307915
1536.50 0.352086
1537.31 0.406408
1538.12 0.474417
1538.93 0.560995
1539.75 0.673532
1540.56 0.823260
1541.37 1.02898
1542.18 1.32179
1543.00 1.75791
1543.81 2.44518
1544.62 3.61646
1545.03 4.53310
1545.44 5.82284
1545.84 7.71072
1546.25 10.5635
1546.65 15.0247
1547.06 22.0424
1547.58 35.2901
1548.10 44.1191
1548.62 35.2598
1549.14 22.0133
1549.72 12.8733
1550.29 8.06793
1550.87 5.42781
1551.45 3.86767
1552.03 2.88264
1552.60 2.22570
1553.76 1.43682
1554.91 1.00092
1556.06 0.736319
1558.37 0.445396
1560.68 0.297848
1562.98 0.212998
1565.29 0.159806
1567.60 0.124295
1572.21 0.0813235
1576.83 0.0573277
1581.44 0.0425853
1586.05 0.0328888
1595.28 0.0213379
1604.51 0.0149924
1613.74 0.0111443
1622.97 0.00864399
1623.00 0.00863670
1623.03 0.00862942
1623.11 0.00861160
1623.19 0.00859405
1623.35 0.00855912
1623.68 0.00848974
1624.32 0.00835386
1625.60 0.00809221
1628.16 0.00760733
1633.29 0.00676966
1643.56 0.00549713
1664.08 0.00395956
1684.60 0.00319409
1705.12 0.00295096
1725.64 0.00333084
1735.90 0.00396558
1746.16 0.00528290
1751.29 0.00645256
1756.42 0.00828423
1761.55 0.0113494
1766.68 0.0170048
1769.25 0.0218075
1771.82 0.0291791
1774.38 0.0413343
1776.95 0.0635055
1778.23 0.0821874
1779.51 0.110674
1780.79 0.157334
1782.08 0.241512
1782.72 0.311823
1783.36 0.417934
1784.00 0.589280
1784.32 0.717737
1784.64 0.892646
1784.96 1.14114
1785.12 1.30674
1785.28 1.50970
1785.44 1.76555
1785.60 2.08988
1785.76 2.51210
1785.92 3.07569
1786.08 3.85677
1786.24 4.96627
1786.40 6.62590
1786.56 9.26092
1786.73 13.8243
1786.81 17.4068
1786.89 22.5043
1786.97 30.0315
1787.05 41.6042
1787.13 60.0623
1787.21 89.7785
1787.30 144.001
1787.40 179.676
1787.50 143.392
1787.60 89.7603
1787.66 63.3547
1787.73 46.0276
1787.80 34.4543
1787.87 26.5409
1788.01 16.8832
1788.14 11.6184
1788.28 8.43237
1788.41 6.39725
1788.69 4.03162
1788.96 2.76315
1789.23 2.01177
1789.50 1.52782
1789.78 1.20033
1790.32 0.795621
1790.87 0.566025
1791.41 0.423172
1791.96 0.328314
1793.05 0.214083
1794.14 0.150669
1795.23 0.111800
1796.32 0.0863106
1798.50 0.0559760
1800.68 0.0393101
1802.86 0.0291817
1805.04 0.0225718
1809.40 0.0147455
1813.77 0.0104655
1818.13 0.00786922
1822.49 0.00617569
1831.21 0.00416962
1839.93 0.00306930
1857.38 0.00196524
1874.83 0.00146698
1892.27 0.00127188
1901.00 0.00131250
1909.72 0.00163225
1918.44 0.00369919
1922.80 0.0120954
1923.89 0.0207452
1924.98 0.0451432
1925.53 0.0787513
1926.07 0.172360
1926.35 0.299524
1926.48 0.423294
1926.62 0.643427
1926.76 1.09831
1926.82 1.52739
1926.89 2.26615
1926.96 3.70054
1926.99 4.98472
1927.03 7.06192
1927.06 10.7287
1927.10 18.0425
1927.11 24.6830
1927.13 35.3893
1927.15 53.6061
1927.16 86.8834
1927.18 138.071
1927.20 173.771
1927.22 138.072
1927.24 86.8847
1927.25 53.6073
1927.27 34.5977
1927.29 23.7369
1927.31 17.1443
1927.33 12.9027
1927.34 10.0349
1927.38 6.61230
1927.41 4.62929
1927.45 3.44356
1927.52 2.10179
1927.59 1.41372
1927.66 1.01518
1927.80 0.595760
1927.95 0.391301
1928.09 0.276596
1928.37 0.159257
1928.94 0.0726655
1929.51 0.0416788
1930.65 0.0191696
1931.78 0.0111940
1936.33 0.00342438
1945.43 0.00146409
1954.52 0.00112593
1963.62 0.00106663
1972.71 0.00115044
1981.81 0.00141644
1990.91 0.00209553
2000.00 0.00423912
2004.24 0.00715442
2008.47 0.0154708
2010.59 0.0270526
2011.65 0.0386370
2012.71 0.0598256
2013.77 0.105121
2014.30 0.150202
2014.83 0.231934
2015.36 0.405112
2015.62 0.575345
2015.89 0.879102
2016.02 1.13243
2016.15 1.50970
2016.28 2.11199
2016.41 3.16077
2016.55 5.25648
2016.61 7.16160
2016.68 10.3116
2016.75 16.0579
2016.78 20.8746
2016.81 28.1499
2016.84 39.7912
2016.88 59.7852
2016.91 96.9918
2016.94 171.522
2016.97 275.345
2017.00 342.917
2017.03 275.346
2017.06 171.525
2017.07 126.348
2017.09 93.9667
2017.13 56.6942
2017.16 36.8085
2017.20 25.8397
2017.23 18.9055
2017.27 14.5006
2017.34 9.27601
2017.41 6.39648
2017.48 4.69073
2017.62 2.81824
2017.76 1.87715
2017.90 1.33897
2018.04 1.00284
2018.19 0.779020
2018.47 0.508886
2018.75 0.358320
2019.31 0.205177
2019.88 0.132809
2020.44 0.0929872
2021.57 0.0529380
2023.83 0.0239618
2026.08 0.0137151
2030.59 0.00634167
2035.11 0.00374354
2044.13 0.00187379
2053.16 0.00121269
2071.21 0.000738532
2089.26 0.000587635
2107.31 0.000567180
2125.36 0.000718335
2143.41 0.00179179
2152.43 0.00619162
2154.69 0.0107394
2156.94 0.0236418
2158.07 0.0415325
2159.20 0.0918745
2159.76 0.160974
2160.05 0.229243
2160.33 0.352399
2160.61 0.609933
2160.75 0.859833
2160.89 1.30155
2160.96 1.66515
2161.03 2.19557
2161.10 3.04020
2161.17 4.45428
2161.24 7.18327
2161.28 9.54093
2161.31 13.2522
2161.35 19.7885
2161.39 31.8242
2161.40 42.4456
2161.42 57.6059
2161.44 82.6954
2161.46 119.840
2161.48 193.455
2161.50 239.700
2161.52 190.045
2161.55 119.841
2161.56 82.6965
2161.58 59.8521
2161.59 44.6864
2161.61 34.3603
2161.64 21.8730
2161.67 15.0257
2161.71 10.9163
2161.74 8.27283
2161.80 5.20627
2161.87 3.56958
2161.93 2.59685
2161.99 1.97285
2162.06 1.54909
2162.19 1.02434
2162.32 0.728855
2162.57 0.422751
2162.83 0.275246
2163.08 0.193631
2163.60 0.110763
2164.62 0.0501397
2165.65 0.0285469
2167.70 0.0129472
2169.75 0.00743751
2177.95 0.00208300
2194.35 0.000732040
2227.15 0.000428253
2259.96 0.000665436
2276.36 0.00191142
2284.56 0.00694411
2286.61 0.0121448
2288.66 0.0268968
2289.69 0.0473600
2290.71 0.104980
2291.22 0.184257
2291.48 0.262512
2291.74 0.403749
2291.99 0.701044
2292.12 0.989257
2292.25 1.49964
2292.31 1.91698
2292.38 2.53565
2292.44 3.50880
2292.51 5.16740
2292.57 8.33701
2292.60 11.1267
2292.63 15.5578
2292.67 23.1721
2292.70 37.7213
2292.71 50.3368
2292.73 69.7295
2292.75 100.653
2292.76 150.420
2292.78 243.140
2292.80 300.852
2292.82 238.204
2292.84 150.421
2292.86 93.6698
2292.88 62.7074
2292.89 44.1804
2292.91 32.5331
2292.95 19.5339
2292.98 12.9346
2293.02 9.08611
2293.06 6.77226
2293.13 4.16918
2293.20 2.80543
2293.27 2.02326
2293.35 1.52744
2293.42 1.19366
2293.56 0.784251
2293.71 0.554278
2294.00 0.319300
2294.29 0.207066
2294.58 0.145261
2295.15 0.0828013
2296.31 0.0373504
2297.47 0.0212260
2299.78 0.00960369
2302.10 0.00550922
2311.36 0.00153427
2329.87 0.000528064
2366.90 0.000271074
2403.94 0.000243979
2422.45 0.000327910
2431.71 0.000697747
2436.34 0.00217547
2438.65 0.00799036
2439.81 0.0304687
2440.39 0.114596
2440.53 0.196246
2440.68 0.407738
2440.75 0.675660
2440.82 1.31003
2440.86 2.01870
2440.89 3.47616
2440.91 4.84417
2440.93 7.12921
2440.95 11.2136
2440.97 19.0358
2440.98 30.3122
2441.00 38.0718
2441.02 30.3123
2441.03 19.0361
2441.05 12.8768
2441.06 9.08922
2441.09 4.94180
2441.11 3.04319
2441.14 2.07374
2441.19 1.10900
2441.25 0.691937
2441.35 0.340143
2441.46 0.202264
2441.67 0.0945919
2441.89 0.0547605
2442.74 0.0143952
2444.45 0.00382055
2447.86 0.00111382
2454.68 0.000428971
2468.33 0.000258218
2495.63 0.000225092
2522.93 0.000240023
2550.22 0.000284160
2577.52 0.000387666
2591.17 0.000493157
2604.82 0.000687473
2611.64 0.000852496
2618.47 0.00110629
2625.29 0.00152637
2632.12 0.00229754
2635.53 0.00295200
2638.94 0.00395803
2642.35 0.00562209
2645.77 0.00867444
2647.47 0.0112609
2649.18 0.0152327
2650.88 0.0217898
2652.59 0.0337819
2653.44 0.0439127
2654.30 0.0594213
2655.15 0.0849158
2656.00 0.131248
2656.43 0.170195
2656.86 0.229299
2657.28 0.325850
2657.71 0.498671
2657.92 0.642599
2658.14 0.857852
2658.35 1.20238
2658.56 1.80452
2658.67 2.29320
2658.78 3.00984
2658.88 4.12063
2658.94 4.91154
2658.99 5.95154
2659.04 7.38691
2659.10 9.35768
2659.15 12.2167
2659.20 16.5708
2659.26 23.7896
2659.28 29.2036
2659.31 36.2358
2659.34 46.3216
2659.36 60.0207
2659.39 80.4108
2659.41 108.379
2659.46 173.344
2659.50 216.626
2659.54 173.338
2659.59 108.373
2659.63 64.6020
2659.68 41.0341
2659.72 27.8559
2659.77 20.1083
2659.82 15.0422
2659.86 11.7071
2659.95 7.60852
2660.04 5.32560
2660.13 3.93021
2660.32 2.38804
2660.50 1.60161
2660.68 1.14772
2660.86 0.862437
2661.04 0.671588
2661.41 0.440170
2661.77 0.310585
2662.14 0.230811
2662.50 0.178248
2663.23 0.115486
2663.96 0.0808735
2664.68 0.0597876
2665.41 0.0459994
2666.87 0.0296623
2668.32 0.0207217
2669.78 0.0153038
2671.24 0.0117746
2674.15 0.00760964
2677.06 0.00533954
2679.97 0.00396785
2682.88 0.00307641
2688.71 0.00202701
2694.53 0.00145713
2700.36 0.00111404
2706.18 0.000892051
2717.83 0.000633100
2729.48 0.000495487
2752.77 0.000368903
2776.07 0.000331895
2799.37 0.000368007
2822.67 0.000703151
2834.31 0.00208889
2840.14 0.00760363
2841.59 0.0132803
2843.05 0.0293388
2843.78 0.0515330
2844.51 0.113682
2844.87 0.198461
2845.23 0.431095
2845.42 0.740265
2845.51 1.03701
2845.60 1.55512
2845.69 2.58357
2845.74 3.53954
2845.78 5.09136
2845.83 8.00642
2845.85 10.4816
2845.87 14.0647
2845.89 20.0913
2845.92 30.6555
2845.94 50.9090
2845.95 67.0605
2845.96 92.0039
2845.98 145.719
2846.00 183.888
2846.02 145.720
2846.04 92.0047
2846.05 62.0838
2846.07 43.1961
2846.08 31.2806
2846.10 23.4948
2846.13 14.4767
2846.16 9.85639
2846.19 7.04541
2846.22 5.27660
2846.28 3.29164
2846.34 2.23126
2846.39 1.61857
2846.51 0.962049
2846.63 0.634628
2846.75 0.450945
2846.99 0.260596
2847.46 0.119084
2847.93 0.0679910
2848.88 0.0307377
2849.83 0.0175139
2853.62 0.00460193
2861.21 0.00133527
2876.38 0.000516059
2906.73 0.000321589
2937.07 0.000302519
2967.42 0.000316250
3028.11 0.000392654
3088.80 0.000547916
3149.49 0.000871847
3179.84 0.00117776
3210.18 0.00170101
3240.53 0.00271077
3255.70 0.00361413
3270.87 0.00508436
3286.05 0.00773431
3293.63 0.00995457
3301.22 0.0133475
3308.81 0.0189676
3316.39 0.0294913
3320.19 0.0387864
3323.98 0.0540522
3325.88 0.0660094
3327.77 0.0839608
3328.72 0.0977005
3329.67 0.120431
3330.62 0.190173
3330.85 0.248666
3331.09 0.399322
3331.21 0.592835
3331.33 1.07841
3331.39 1.67651
3331.45 3.03064
3331.48 4.50233
3331.51 7.24760
3331.52 9.73517
3331.54 13.6383
3331.55 20.0294
3331.57 30.2776
3331.58 48.6238
3331.60 60.4954
3331.62 48.6248
3331.63 30.2795
3331.65 17.9975
3331.67 11.3333
3331.69 7.66935
3331.71 5.50428
3331.75 3.22667
3331.79 2.13263
3331.86 1.16339
3331.94 0.762181
3332.09 0.444159
3332.24 0.325888
3332.54 0.241671
3332.85 0.217312
3333.45 0.214749
3334.06 0.233422
3334.67 0.263834
3335.27 0.305605
3335.88 0.361704
3336.48 0.437898
3337.09 0.544403
3337.70 0.698619
3338.30 0.934022
3338.91 1.31887
3339.52 2.01017
3339.82 2.58102
3340.12 3.43088
3340.42 4.76433
3340.73 6.99183
3341.03 10.9721
3341.33 18.3572
3341.62 29.3406
3341.90 36.6195
3342.18 29.2969
3342.47 18.3267
3342.73 11.7706
3342.99 7.91134
3343.25 5.59726
3343.50 4.14673
3344.02 2.52495
3344.54 1.70434
3345.06 1.23806
3345.57 0.951925
3346.61 0.639002
3347.64 0.488719
3348.68 0.415236
3349.71 0.386119
3350.74 0.389221
3351.26 0.401959
3351.78 0.422611
3352.30 0.452208
3352.81 0.492405
3353.07 0.517274
3353.33 0.545834
3353.59 0.578600
3353.85 0.616039
3354.36 0.708697
3354.88 0.832292
3355.40 1.00043
3355.92 1.23385
3356.43 1.56881
3356.95 2.06908
3357.47 2.85437
3357.98 4.16327
3358.24 5.15490
3358.50 6.49028
3358.76 8.31686
3359.02 10.7751
3359.51 17.2120
3360.00 21.4994
3360.49 17.2017
3360.98 10.7610
3361.47 6.63264
3361.96 4.32379
3362.45 2.98915
3362.94 2.17454
3363.44 1.64617
3363.93 1.28793
3364.91 0.848853
3365.89 0.601298
3366.87 0.448691
3368.83 0.278367
3370.79 0.190302
3372.75 0.138864
3376.67 0.0839916
3380.60 0.0567773
3384.52 0.0414911
3388.44 0.0336441
3389.42 0.0338003
3390.41 0.0378547
3391.39 0.0663594
3391.88 0.176489
3392.00 0.282693
3392.12 0.553304
3392.18 0.890240
3392.24 1.66316
3392.28 2.51439
3392.31 4.13052
3392.34 7.99354
3392.35 11.8048
3392.37 18.2919
3392.38 29.1781
3392.40 36.5488
3392.42 29.1782
3392.43 18.2920
3392.45 10.3102
3392.47 6.33201
3392.49 4.20814
3392.51 2.97712
3392.56 1.68305
3392.60 1.09004
3392.68 0.563957
3392.76 0.348534
3392.92 0.177977
3393.08 0.113220
3393.73 0.0462422
3395.02 0.0271305
3396.32 0.0224103
3397.61 0.0199888
3402.79 0.0149187
3413.14 0.00984676
3423.49 0.00711037
3433.85 0.00548177
3444.20 0.00454370
3454.55 0.00433527
3459.73 0.00485051
3464.91 0.00694085
3470.08 0.0193415
3471.38 0.0322628
3472.67 0.0688122
3473.32 0.119192
3473.96 0.259529
3474.29 0.450069
3474.45 0.636331
3474.61 0.965529
3474.77 1.64301
3474.85 2.28583
3474.93 3.39377
3475.02 5.54847
3475.06 7.51045
3475.10 10.6112
3475.14 16.2430
3475.18 27.2333
3475.20 37.1712
3475.22 53.1275
3475.24 80.1272
3475.26 129.721
3475.28 207.605
3475.30 259.140
3475.32 207.605
3475.34 129.414
3475.36 87.5652
3475.38 62.2010
3475.39 44.9576
3475.41 34.2545
3475.44 21.2591
3475.47 14.5225
3475.51 10.4150
3475.54 7.88263
3475.60 4.92160
3475.67 3.33987
3475.73 2.42365
3475.86 1.44155
3476.00 0.951904
3476.13 0.676917
3476.39 0.392019
3476.91 0.180153
3477.43 0.103634
3478.47 0.0478459
3479.52 0.0279899
3481.61 0.0136211
3483.69 0.00851336
3492.04 0.00338954
3500.39 0.00228857
3508.74 0.00181010
3525.44 0.00133228
3542.14 0.00106810
3575.54 0.000764393
3608.94 0.000596590
3642.35 0.000504319
3675.75 0.000488923
3692.45 0.000546115
3709.15 0.000768655
3725.85 0.00207982
3734.20 0.00736171
3736.28 0.0128070
3738.37 0.0282060
3739.41 0.0494986
3740.46 0.109133
3740.98 0.190500
3741.50 0.413830
3741.76 0.710720
3741.89 0.997143
3742.02 1.49349
3742.16 2.48723
3742.22 3.39228
3742.29 4.89191
3742.35 7.63636
3742.38 9.98775
3742.42 13.4430
3742.45 19.1791
3742.48 28.7957
3742.51 47.4797
3742.53 62.4834
3742.55 84.4605
3742.57 135.539
3742.60 168.931
3742.63 135.538
3742.65 84.4603
3742.68 52.5073
3742.71 34.1840
3742.74 23.5969
3742.76 17.3089
3742.79 13.0508
3742.81 10.2531
3742.87 6.73286
3742.92 4.71618
3742.97 3.50004
3743.08 2.14246
3743.19 1.43874
3743.29 1.03485
3743.51 0.607139
3743.72 0.398603
3743.93 0.281601
3744.36 0.161905
3745.21 0.0736553
3746.06 0.0420210
3747.76 0.0190361
3749.47 0.0108884
3756.28 0.00294905
3769.91 0.000935507
3797.16 0.000415232
3824.41 0.000310483
3851.66 0.000272202
3906.16 0.000268282
3933.41 0.000357172
3947.04 0.000702423
3953.85 0.00205353
3957.26 0.00737744
3958.96 0.0281600
3959.81 0.107504
3960.03 0.185923
3960.24 0.396467
3960.35 0.670391
3960.45 1.35532
3960.51 2.17046
3960.56 3.99667
3960.59 5.93238
3960.61 9.40854
3960.63 12.5959
3960.64 17.0709
3960.65 23.9376
3960.67 34.6061
3960.68 55.9295
3960.70 69.1926
3960.72 55.9297
3960.73 34.6063
3960.75 24.6013
3960.76 17.4998
3960.77 12.8789
3960.79 9.78880
3960.81 6.12737
3960.84 4.16189
3960.89 2.25989
3960.94 1.42231
3961.04 0.705614
3961.15 0.419753
3961.35 0.196870
3961.56 0.114102
3962.39 0.0299230
3964.04 0.00783712
3967.34 0.00218457
3973.95 0.000762409
3987.16 0.000430701
4000.37 0.000411860
4013.59 0.000476656
4026.80 0.000654664
4033.40 0.000839842
4040.01 0.00118256
4043.31 0.00147416
4046.62 0.00192285
4049.92 0.00266562
4053.22 0.00402918
4054.88 0.00518591
4056.53 0.00696233
4058.18 0.00989983
4059.83 0.0152765
4060.66 0.0198279
4061.48 0.0268062
4062.31 0.0383026
4063.13 0.0592260
4063.96 0.103757
4064.37 0.147771
4064.78 0.227212
4065.20 0.393473
4065.40 0.555462
4065.61 0.840701
4065.82 1.42208
4065.92 1.96510
4066.02 2.88818
4066.13 4.64503
4066.18 6.20311
4066.23 8.61906
4066.28 12.8287
4066.31 16.1436
4066.33 20.6362
4066.36 27.4613
4066.38 37.8911
4066.41 54.3830
4066.44 79.6245
4066.47 127.967
4066.50 159.124
4066.53 127.965
4066.56 79.4998
4066.59 57.6813
4066.61 42.7474
4066.65 25.3419
4066.69 16.2941
4066.73 11.3496
4066.78 8.26833
4066.82 6.31516
4066.90 4.01647
4066.99 2.76136
4067.07 2.01250
4067.24 1.20638
4067.41 0.800665
4067.58 0.570770
4067.75 0.427302
4067.92 0.331826
4068.26 0.216419
4068.60 0.152226
4068.94 0.112889
4069.27 0.0871184
4069.95 0.0563458
4070.63 0.0394542
4071.31 0.0291699
4071.98 0.0224654
4073.34 0.0145269
4074.69 0.0101893
4076.05 0.00756367
4077.40 0.00585582
4080.11 0.00384037
4082.82 0.00274344
4085.53 0.00208108
4088.24 0.00165129
4093.66 0.00114638
4099.08 0.000873485
4109.92 0.000606033
4120.76 0.000487323
4131.60 0.000428059
4153.27 0.000383591
4196.63 0.000408055
4239.98 0.000523721
4283.33 0.000789255
4305.01 0.00105035
4326.69 0.00151794
4348.36 0.00249863
4370.04 0.00522245
4380.88 0.00897134
4386.30 0.0127086
4391.72 0.0195396
4394.43 0.0253142
4397.14 0.0341596
4399.85 0.0487310
4402.55 0.0752778
4403.91 0.0976366
4405.26 0.131755
4406.62 0.187594
4407.97 0.288319
4408.65 0.372430
4409.33 0.499352
4410.01 0.704638
4410.68 1.06759
4411.02 1.36477
4411.36 1.80540
4411.70 2.49870
4412.04 3.67615
4412.38 5.93150
4412.55 7.90944
4412.72 11.0462
4412.89 16.4671
4413.05 26.7536
4413.14 35.7143
4413.22 49.2912
4413.31 71.1371
4413.39 105.755
4413.50 169.465
4413.60 212.039
4413.70 169.454
4413.81 105.748
4413.90 67.9872
4414.00 45.6688
4414.09 32.2366
4414.18 23.7642
4414.37 14.2846
4414.56 9.48216
4414.75 6.71931
4414.93 5.00919
4415.31 3.08090
4415.69 2.08013
4416.06 1.49868
4416.44 1.13062
4416.81 0.883111
4417.56 0.581105
4418.31 0.411382
4419.06 0.306398
4419.81 0.237144
4421.31 0.154177
4422.81 0.108310
4424.32 0.0803229
4425.82 0.0620022
4428.82 0.0402766
4431.82 0.0283851
4434.82 0.0211859
4437.82 0.0165084
4443.83 0.0110199
4449.83 0.00807768
4461.84 0.00529703
4473.84 0.00426569
4485.85 0.00412506
4497.86 0.00505029
4503.86 0.00719910
4506.86 0.0128520
4508.37 0.0320612
4509.12 0.102699
4509.49 0.354771
4509.58 0.589169
4509.68 1.17166
4509.73 1.85418
4509.77 3.35019
4509.80 4.90006
4509.82 7.58519
4509.84 12.9031
4509.85 17.7690
4509.87 24.6731
4509.88 39.6903
4509.90 49.3171
4509.92 39.6904
4509.93 24.6733
4509.96 13.5827
4509.98 8.25799
4510.00 5.44956
4510.02 3.83442
4510.06 2.14932
4510.10 1.38049
4510.19 0.701749
4510.27 0.427015
4510.44 0.207682
4510.61 0.124599
4511.29 0.0398407
4512.64 0.0189391
4515.35 0.0211580
4516.70 0.0313867
4518.05 0.0615602
4518.73 0.103425
4519.40 0.220030
4519.74 0.378069
4520.08 0.807352
4520.25 1.37047
4520.33 1.90873
4520.42 2.82530
4520.50 4.63049
4520.55 6.23197
4520.59 8.81989
4520.63 13.5301
4520.65 17.2866
4520.67 22.7794
4520.69 31.1882
4520.71 44.7598
4520.74 67.8684
4520.76 108.688
4520.78 173.642
4520.80 217.500
4520.82 173.642
4520.84 108.689
4520.87 62.4214
4520.89 38.7667
4520.92 25.9288
4520.94 18.4047
4520.97 13.6810
4520.99 10.5435
4521.04 6.78844
4521.10 4.69239
4521.15 3.45258
4521.25 2.09103
4521.35 1.39567
4521.45 1.00073
4521.65 0.586017
4522.05 0.273505
4522.45 0.159515
4523.26 0.0759697
4524.06 0.0462101
4527.27 0.0176202
4530.49 0.0130625
4533.71 0.0123632
4540.14 0.0147238
4546.57 0.0211241
4549.78 0.0267753
4553.00 0.0354476
4556.21 0.0495852
4559.43 0.0747707
4561.04 0.0954566
4562.65 0.126224
4563.45 0.147558
4564.25 0.174822
4565.06 0.210425
4565.86 0.258056
4566.26 0.288208
4566.66 0.323951
4567.07 0.366748
4567.47 0.418566
4567.87 0.482101
4568.27 0.561125
4568.67 0.661032
4569.08 0.789376
4569.48 0.958728
4569.88 1.18747
4570.28 1.50583
4570.68 1.96488
4571.09 2.65460
4571.49 3.73968
4571.89 5.52359
4572.29 8.49161
4572.75 13.5808
4573.20 16.9700
4573.66 13.5654
4574.11 8.47895
4574.64 4.85080
4575.17 2.99657
4575.69 1.99701
4576.22 1.41395
4576.75 1.04858
4577.28 0.807045
4578.33 0.518658
4579.38 0.360337
4580.44 0.264652
4582.55 0.159848
4584.66 0.106875
4586.77 0.0764712
4588.87 0.0574336
4590.98 0.0447320
4595.20 0.0293696
4599.42 0.0207859
4603.64 0.0155073
4607.86 0.0120302
4616.29 0.00787614
4624.73 0.00558084
4633.16 0.00417832
4641.60 0.00325778
4658.47 0.00216027
4675.34 0.00155385
4692.22 0.00118284
4709.09 0.000939216
4742.83 0.000650714
4776.57 0.000501610
4810.32 0.000473590
4827.19 0.000719821
4835.63 0.00182425
4839.84 0.00624883
4841.95 0.0236040
4843.01 0.0900861
4843.27 0.156222
4843.53 0.333936
4843.67 0.565876
4843.80 1.15848
4843.86 1.87728
4843.93 3.53081
4843.96 5.29398
4844.00 8.70764
4844.01 11.8193
4844.03 16.3753
4844.05 23.6434
4844.06 35.4389
4844.08 57.1809
4844.10 70.7876
4844.12 56.0177
4844.14 35.3482
4844.16 21.4865
4844.18 14.1286
4844.20 9.82910
4844.22 7.17254
4844.25 4.25627
4844.29 2.79834
4844.37 1.46460
4844.44 0.896353
4844.60 0.434175
4844.75 0.255158
4845.05 0.118372
4845.36 0.0682239
4846.58 0.0178442
4849.01 0.00476591
4853.88 0.00142643
4863.62 0.000572961
4883.11 0.000341170
4902.59 0.000286205
4922.07 0.000260727
5000.00 0.000235700
5052.82 0.000266512
5079.22 0.000307042
5105.63 0.000383618
5132.04 0.000543448
5158.45 0.000966790
5171.65 0.00152223
5184.86 0.00303055
5191.46 0.00507536
5198.06 0.0107846
5201.36 0.0186409
5203.01 0.0264540
5204.66 0.0406617
5206.31 0.0708399
5207.14 0.100609
5207.96 0.154258
5208.38 0.198979
5208.79 0.266484
5209.20 0.375332
5209.61 0.566998
5209.82 0.724046
5210.03 0.955124
5210.23 1.31692
5210.44 1.92947
5210.65 3.09609
5210.75 4.10906
5210.85 5.70096
5210.96 8.39460
5211.06 13.4205
5211.11 17.7224
5211.16 24.0516
5211.21 34.0307
5211.26 49.3243
5211.33 78.8397
5211.40 98.6275
5211.47 78.8371
5211.54 49.2865
5211.59 32.4111
5211.65 22.1777
5211.71 15.7801
5211.77 11.7543
5211.89 7.13667
5212.00 4.77187
5212.12 3.39459
5212.24 2.53977
5212.47 1.56853
5212.70 1.06121
5212.94 0.766065
5213.17 0.578788
5213.40 0.452631
5213.87 0.298330
5214.33 0.211554
5215.27 0.122309
5216.20 0.0797719
5217.13 0.0562485
5219.00 0.0325168
5222.73 0.0153458
5226.46 0.00938000
5233.92 0.00548736
5241.38 0.00491454
5248.85 0.00631726
5256.31 0.0119519
5260.04 0.0201683
5261.91 0.0284299
5263.77 0.0435116
5265.64 0.0755874
5266.57 0.107239
5267.50 0.164146
5267.97 0.211550
5268.44 0.282809
5268.90 0.397644
5269.37 0.599244
5269.60 0.763775
5269.84 1.00518
5270.07 1.38146
5270.30 2.01443
5270.53 3.19981
5270.65 4.22636
5270.77 5.80706
5270.88 8.46084
5271.00 13.2454
5271.06 17.2618
5271.12 23.0474
5271.18 31.6960
5271.23 44.6148
5271.32 71.5510
5271.40 89.2204
5271.48 71.2060
5271.57 44.6129
5271.63 30.6279
5271.70 21.6562
5271.76 15.8747
5271.82 12.0829
5271.95 7.55832
5272.08 5.13344
5272.20 3.69148
5272.33 2.78250
5272.59 1.73852
5272.84 1.18499
5273.09 0.859627
5273.35 0.651759
5273.60 0.511023
5274.11 0.338018
5274.62 0.240193
5275.13 0.179357
5275.64 0.139113
5276.65 0.0906758
5277.67 0.0638322
5279.71 0.0366281
5281.74 0.0238049
5283.77 0.0167612
5287.84 0.00967620
5295.98 0.00453140
5304.12 0.00269540
5320.39 0.00135362
5336.67 0.000871575
5401.77 0.000433345
5466.86 0.000553536
5499.41 0.000934150
5515.69 0.00152988
5523.83 0.00253129
5527.90 0.00514758
5529.93 0.0143942
5530.95 0.0492317
5531.46 0.177206
5531.71 0.608872
5531.77 0.989322
5531.84 1.85098
5531.87 2.78523
5531.90 4.61066
5531.93 8.78018
5531.95 12.9708
5531.96 19.7927
5531.98 31.7716
5532.00 39.5833
5532.02 31.7717
5532.04 19.7928
5532.05 12.3215
5532.07 8.02425
5532.11 4.08773
5532.14 2.43038
5532.18 1.60006
5532.25 0.832710
5532.32 0.511628
5532.60 0.147366
5533.16 0.0411934
5534.29 0.0127122
5536.54 0.00562488
5541.04 0.00467383
5550.05 0.00839410
5554.55 0.0138966
5559.06 0.0289850
5561.31 0.0493474
5562.43 0.0693512
5563.56 0.105352
5564.69 0.180896
5565.25 0.254632
5565.81 0.386041
5566.37 0.655856
5566.66 0.913229
5566.94 1.35690
5567.22 2.22838
5567.36 3.01611
5567.50 4.29153
5567.64 6.58760
5567.71 8.45923
5567.78 11.2229
5567.85 15.5875
5567.92 22.6901
5567.99 35.1149
5568.06 57.8510
5568.13 92.3760
5568.20 115.709
5568.27 92.3741
5568.34 57.8502
5568.40 38.0874
5568.46 26.0063
5568.51 18.5747
5568.57 13.8108
5568.69 8.39688
5568.81 5.62047
5568.93 4.00220
5569.04 2.99716
5569.28 1.85471
5569.51 1.25964
5569.75 0.911594
5570.22 0.542290
5570.69 0.360861
5571.16 0.259192
5572.10 0.155701
5573.98 0.0829206
5575.86 0.0644355
5577.74 0.0717501
5579.62 0.121762
5580.56 0.197122
5581.03 0.272163
5581.50 0.406948
5581.97 0.684873
5582.21 0.949740
5582.44 1.40804
5582.68 2.30427
5582.80 3.11686
5582.91 4.43015
5583.03 6.79623
5583.09 8.74074
5583.15 11.5603
5583.21 16.0063
5583.27 23.3382
5583.33 36.1961
5583.38 59.3108
5583.44 94.6663
5583.50 118.622
5583.56 94.6648
5583.62 59.3099
5583.66 40.5465
5583.71 28.5100
5583.75 20.8107
5583.80 15.7253
5583.89 9.77033
5583.97 6.63436
5584.06 4.76659
5584.15 3.58393
5584.33 2.23817
5584.51 1.52532
5584.69 1.10771
5585.05 0.660665
5585.41 0.438768
5585.77 0.313125
5586.49 0.183538
5587.92 0.0865799
5589.36 0.0511672
5592.23 0.0248047
5595.09 0.0150646
5600.83 0.00762783
5606.57 0.00479389
5618.05 0.00260904
5629.53 0.00184545
5652.49 0.00204098
5663.97 0.00530246
5669.71 0.0187106
5671.14 0.0325042
5672.58 0.0713858
5673.30 0.124913
5674.01 0.273406
5674.37 0.474192
5674.73 1.01435
5674.91 1.72160
5675.00 2.38951
5675.09 3.51766
5675.18 5.70750
5675.22 7.64962
5675.27 10.6708
5675.31 16.0023
5675.36 26.3338
5675.38 35.6724
5675.40 49.5948
5675.43 71.9583
5675.45 109.128
5675.47 175.404
5675.50 218.262
5675.53 175.403
5675.55 109.128
5675.58 63.6259
5675.61 39.4403
5675.64 26.3343
5675.67 18.8664
5675.70 13.9892
5675.73 10.7592
5675.79 6.95219
5675.85 4.82126
5675.91 3.55181
5676.03 2.14547
5676.15 1.43378
5676.27 1.02504
5676.50 0.598132
5676.98 0.276043
5677.46 0.158580
5678.41 0.0721237
5679.36 0.0412458
5683.16 0.0109471
5690.77 0.00323443
5705.99 0.00130231
5721.22 0.00100878
5736.44 0.00104130
5751.66 0.00134161
5766.88 0.00230812
5782.10 0.00743793
5785.90 0.0126701
5789.71 0.0274414
5791.61 0.0478749
5793.51 0.105204
5794.46 0.183809
5794.94 0.261366
5795.41 0.400673
5795.89 0.691634
5796.13 0.973138
5796.37 1.46624
5796.60 2.46130
5796.72 3.38688
5796.84 4.94741
5796.96 7.87998
5797.02 10.4417
5797.08 14.3685
5797.14 21.0537
5797.20 33.1019
5797.23 43.2735
5797.26 57.7117
5797.29 80.2120
5797.32 114.069
5797.36 181.749
5797.40 228.014
5797.44 181.747
5797.48 113.931
5797.52 72.4348
5797.56 48.5737
5797.60 33.9583
5797.64 25.0421
5797.71 14.9743
5797.79 9.88816
5797.87 6.99393
5797.95 5.19940
5798.10 3.18966
5798.25 2.15211
5798.41 1.54860
5798.71 0.912454
5799.02 0.599975
5799.33 0.424365
5799.95 0.244647
5801.18 0.111729
5802.41 0.0640120
5804.87 0.0293459
5807.33 0.0170941
5817.18 0.00539293
5822.10 0.00415200
5827.02 0.00363949
5836.87 0.00375350
5841.79 0.00430573
5846.71 0.00532796
5851.64 0.00715216
5856.56 0.0106008
5859.02 0.0135445
5861.48 0.0180602
5863.94 0.0254837
5866.41 0.0389244
5867.64 0.0501608
5868.87 0.0671722
5870.10 0.0947063
5871.33 0.143556
5872.56 0.243220
5873.18 0.337388
5873.48 0.406381
5873.79 0.498480
5874.10 0.626130
5874.41 0.809452
5874.56 0.932576
5874.71 1.08574
5874.87 1.27941
5875.02 1.52711
5875.18 1.85516
5875.33 2.29830
5875.48 2.91515
5875.64 3.79772
5875.79 5.13065
5875.94 7.22694
5876.10 10.6712
5876.25 16.3662
5876.43 26.1926
5876.60 32.6833
5876.78 26.1308
5876.95 16.3176
5877.08 11.4165
5877.20 8.19798
5877.33 6.08090
5877.46 4.65125
5877.71 2.93840
5877.97 2.01099
5878.22 1.45548
5878.47 1.09995
5878.98 0.690202
5879.49 0.472055
5880.00 0.343060
5880.50 0.260322
5881.01 0.204339
5882.03 0.135442
5883.04 0.0963353
5884.06 0.0720357
5885.07 0.0559151
5887.10 0.0365315
5889.13 0.0257665
5891.16 0.0191756
5893.19 0.0148493
5897.25 0.00970203
5901.31 0.00687215
5905.37 0.00515100
5909.43 0.00402679
5917.55 0.00269573
5925.67 0.00196954
5933.79 0.00153305
5941.91 0.00125438
5958.15 0.000951807
5974.39 0.000863951
5982.51 0.000921583
5990.63 0.00118221
5998.75 0.00269060
6002.81 0.00866811
6004.84 0.0320724
6005.34 0.0558785
6005.85 0.121963
6006.10 0.211527
6006.36 0.452733
6006.48 0.768571
6006.61 1.57951
6006.68 2.58051
6006.74 4.86741
6006.77 7.37150
6006.80 12.1021
6006.82 16.4264
6006.83 23.2833
6006.85 34.6679
6006.86 53.1094
6006.88 84.4968
6006.90 106.221
6006.92 84.4963
6006.94 53.1091
6006.95 34.6679
6006.97 23.8348
6006.98 16.7659
6007.00 12.5468
6007.03 7.58718
6007.06 5.04410
6007.12 2.67247
6007.18 1.65770
6007.31 0.810583
6007.43 0.478711
6007.68 0.223119
6007.92 0.128973
6008.41 0.0590859
6008.91 0.0339765
6010.88 0.00919575
6014.82 0.00290105
6022.70 0.00140945
6038.47 0.00157677
6054.23 0.00466315
6058.18 0.00791136
6062.12 0.0171109
6064.09 0.0298332
6066.06 0.0654764
6067.04 0.114168
6068.03 0.247772
6068.52 0.425741
6068.77 0.596370
6069.01 0.894366
6069.26 1.48959
6069.38 2.03436
6069.51 2.93943
6069.63 4.60233
6069.69 6.02045
6069.75 8.14342
6069.82 11.6339
6069.88 17.6178
6069.94 29.1903
6069.97 38.8844
6070.00 52.2090
6070.05 83.8111
6070.10 104.374
6070.15 83.1480
6070.20 52.1566
6070.26 29.4514
6070.32 18.1520
6070.38 12.0815
6070.44 8.54720
6070.50 6.30857
6070.56 4.85582
6070.68 3.12099
6070.79 2.16288
6070.91 1.58894
6071.15 0.958113
6071.39 0.639637
6071.62 0.456996
6072.10 0.266491
6073.05 0.122967
6073.99 0.0706484
6075.89 0.0322354
6077.78 0.0185135
6081.57 0.00859524
6085.36 0.00511278
6100.53 0.00200164
6115.69 0.00309290
6123.27 0.00985752
6127.06 0.0369870
6128.01 0.0647274
6128.95 0.142258
6129.43 0.247996
6129.90 0.537742
6130.14 0.922100
6130.26 1.29237
6130.38 1.93211
6130.49 3.20955
6130.55 4.36772
6130.61 6.27844
6130.67 9.75204
6130.70 12.7129
6130.73 17.0194
6130.76 24.1207
6130.79 35.8183
6130.82 58.1240
6130.85 100.084
6130.87 159.798
6130.90 199.980
6130.93 159.797
6130.95 99.8914
6130.97 73.5210
6130.98 55.1717
6131.02 33.3006
6131.05 21.8613
6131.08 15.3221
6131.11 11.2872
6131.14 8.64044
6131.21 5.51158
6131.27 3.81147
6131.34 2.78925
6131.46 1.67651
6131.72 0.796930
6131.98 0.463837
6132.49 0.213247
6133.00 0.122259
6134.03 0.0555285
6135.05 0.0317269
6139.15 0.00838211
6147.35 0.00242137
6163.74 0.000875047
6196.53 0.000457420
6229.32 0.000387897
6262.11 0.000392194
6294.89 0.000442289
6327.68 0.000556343
6344.08 0.000665558
6360.47 0.000882228
6376.86 0.00170236
6385.06 0.00456191
6389.16 0.0156010
6391.21 0.0585360
6391.72 0.102036
6392.23 0.222181
6392.49 0.383480
6392.75 0.815297
6392.87 1.37129
6393.00 2.76788
6393.07 4.42667
6393.13 8.13347
6393.16 11.9562
6393.19 19.0688
6393.21 25.0712
6393.23 34.0598
6393.24 47.9321
6393.26 70.7988
6393.28 113.453
6393.30 141.515
6393.32 113.453
6393.34 70.7989
6393.36 50.1422
6393.37 36.9749
6393.40 21.7818
6393.43 13.8893
6393.46 9.66094
6393.51 5.35194
6393.57 3.40394
6393.68 1.70035
6393.80 1.01918
6394.02 0.482010
6394.25 0.280576
6394.70 0.129220
6395.16 0.0742639
6396.97 0.0197595
6400.59 0.00579596
6407.84 0.00236632
6415.09 0.00185656
6422.34 0.00181504
6436.83 0.00220868
6451.33 0.00316113
6458.58 0.00399191
6465.83 0.00526875
6473.08 0.00736605
6480.32 0.0111633
6483.95 0.0143400
6487.57 0.0191546
6491.20 0.0269665
6494.82 0.0408992
6498.44 0.0695199
6500.26 0.0967627
6501.16 0.116842
6502.07 0.143893
6502.97 0.181541
6503.43 0.206148
6503.88 0.236097
6504.33 0.273042
6504.79 0.319319
6505.24 0.378321
6505.69 0.455105
6506.15 0.557469
6506.60 0.697888
6507.05 0.897219
6507.50 1.19211
6507.96 1.65068
6508.41 2.40689
6508.86 3.73320
6509.09 4.76241
6509.32 6.13457
6509.76 9.81123
6510.20 12.2601
6510.64 9.80066
6511.09 6.12601
6511.39 4.38623
6511.69 3.21031
6511.99 2.41683
6512.28 1.87141
6512.88 1.20118
6513.48 0.829923
6514.08 0.605048
6514.68 0.459892
6515.88 0.290531
6517.08 0.199743
6518.28 0.145639
6519.48 0.110868
6520.68 0.0872419
6523.07 0.0580892
6525.47 0.0415047
6527.87 0.0311795
6530.27 0.0243279
6535.06 0.0160887
6539.86 0.0115257
6544.65 0.00874732
6549.45 0.00694066
6559.04 0.00484178
6568.63 0.00376263
6587.81 0.00294826
6606.99 0.00318384
6616.58 0.00377265
6626.17 0.00499158
6635.76 0.00769770
6640.56 0.0104045
6645.35 0.0153255
6647.75 0.0194586
6650.15 0.0257499
6652.54 0.0360305
6654.94 0.0545522
6656.14 0.0699861
6657.34 0.0932960
6658.54 0.130919
6659.74 0.197428
6660.34 0.251870
6660.93 0.332399
6661.53 0.459210
6662.13 0.674794
6662.73 1.08698
6663.03 1.44947
6663.33 2.02225
6663.63 3.00736
6663.93 4.87554
6664.08 6.49356
6664.23 8.97182
6664.38 12.9044
6664.53 19.1416
6664.72 30.6103
6664.90 38.2482
6665.09 30.6076
6665.27 19.1398
6665.42 12.8379
6665.57 8.91034
6665.72 6.44133
6665.87 4.84090
6666.17 2.98173
6666.48 2.00571
6666.78 1.43511
6667.08 1.07680
6667.68 0.669069
6668.28 0.455131
6668.89 0.329749
6669.49 0.249983
6670.09 0.196149
6671.29 0.130256
6672.50 0.0930869
6673.70 0.0700711
6674.91 0.0548758
6677.32 0.0367002
6679.73 0.0267201
6682.14 0.0207063
6684.54 0.0168535
6694.18 0.0105730
6703.82 0.0101189
6708.64 0.0112566
6713.46 0.0135742
6718.27 0.0178210
6723.09 0.0258497
6725.50 0.0326359
6727.91 0.0429092
6730.32 0.0594574
6732.73 0.0885340
6733.93 0.112099
6735.14 0.146695
6735.74 0.170420
6736.34 0.200383
6736.95 0.239023
6737.55 0.290008
6738.15 0.359274
6738.75 0.456211
6739.36 0.597673
6739.96 0.814801
6740.26 0.969753
6740.56 1.17081
6740.86 1.43804
6741.16 1.80159
6741.46 2.30865
6741.76 3.03330
6742.07 4.08762
6742.37 5.61583
6742.83 8.98130
6743.30 11.2229
6743.77 8.97200
6744.24 5.60825
6744.55 4.01553
6744.87 2.94182
6745.18 2.21647
6745.50 1.71602
6746.13 1.10273
6746.76 0.762159
6747.40 0.555846
6748.03 0.422641
6749.29 0.267291
6750.56 0.183912
6751.82 0.134245
6754.35 0.0805814
6756.88 0.0537681
6759.41 0.0384917
6761.94 0.0289722
6764.47 0.0226440
6769.52 0.0150119
6774.58 0.0107647
6779.64 0.00816686
6784.69 0.00647458
6794.81 0.00455168
6804.92 0.00384847
6809.98 0.00409002
6815.04 0.00558961
6820.10 0.0150513
6822.63 0.0530118
6823.26 0.0915960
6823.89 0.198756
6824.21 0.343342
6824.52 0.733329
6824.68 1.24027
6824.84 2.53204
6824.92 4.09410
6825.00 7.67390
6825.04 11.5411
6825.07 18.8115
6825.09 25.3381
6825.11 35.5442
6825.13 52.1859
6825.15 79.3288
6825.18 127.105
6825.20 158.573
6825.22 127.104
6825.25 79.3289
6825.27 50.1175
6825.29 33.6892
6825.31 23.4369
6825.33 17.3232
6825.38 10.3438
6825.42 6.88482
6825.50 3.63178
6825.59 2.23231
6825.76 1.08261
6825.93 0.638567
6826.27 0.297752
6826.61 0.172279
6827.29 0.0792227
6827.97 0.0458234
6830.70 0.0128583
6836.15 0.00431172
6847.05 0.00194336
6857.95 0.00136461
6868.85 0.00108627
6890.65 0.000792433
6912.45 0.000632711
6956.05 0.000469070
6999.65 0.000404956
7043.26 0.000408174
7086.86 0.000507438
7130.46 0.000912058
7152.26 0.00164103
7163.16 0.00277129
7168.61 0.00503480
7171.34 0.0119876
7172.70 0.0375774
7173.38 0.132511
7173.72 0.465515
7173.89 1.48780
7173.93 2.31194
7173.98 3.97966
7174.02 8.33715
7174.04 13.1924
7174.06 22.6141
7174.08 36.3681
7174.10 45.2247
7174.12 36.3682
7174.14 22.6141
7174.16 14.8750
7174.17 10.2791
7174.20 5.54731
7174.27 2.26016
7174.33 1.20564
7174.40 0.746208
7174.66 0.218882
7175.18 0.0617974
7176.21 0.0192227
7178.29 0.00863792
7182.44 0.00743241
7190.74 0.0144350
7194.89 0.0250617
7196.97 0.0357161
7199.04 0.0551681
7201.12 0.0965667
7202.15 0.137526
7203.19 0.211401
7203.71 0.273052
7204.23 0.366225
7204.75 0.516703
7205.27 0.782473
7205.53 1.00055
7205.78 1.32250
7206.04 1.83077
7206.30 2.69325
7206.56 4.34696
7206.69 5.80300
7206.82 8.09372
7206.95 12.0519
7207.08 19.5258
7207.15 26.0269
7207.21 35.9963
7207.28 51.8379
7207.34 76.7234
7207.42 122.766
7207.50 153.463
7207.58 122.763
7207.66 76.7215
7207.71 56.6972
7207.76 42.8589
7207.85 26.0272
7207.95 17.1525
7208.05 12.0931
7208.14 8.92048
7208.24 6.83521
7208.43 4.37461
7208.63 3.02652
7208.82 2.21872
7209.21 1.33665
7209.59 0.890963
7209.98 0.635848
7210.37 0.476408
7210.75 0.370416
7211.53 0.242053
7212.30 0.170556
7213.85 0.0977341
7215.40 0.0633052
7216.94 0.0443546
7220.04 0.0252949
7226.22 0.0114989
7232.41 0.00662278
7244.78 0.00312560
7257.16 0.00190940
7281.91 0.00108607
7306.65 0.000891117
7331.40 0.000985118
7343.78 0.00116653
7356.15 0.00152688
7368.53 0.00230091
7374.71 0.00305813
7380.90 0.00441409
7383.99 0.00554255
7387.09 0.00725233
7390.18 0.0100396
7393.27 0.0150697
7394.82 0.0192805
7396.37 0.0256812
7397.91 0.0361194
7399.46 0.0548848
7400.23 0.0705125
7401.01 0.0940518
7401.78 0.132029
7402.55 0.198980
7403.33 0.334445
7403.72 0.461127
7404.10 0.675261
7404.30 0.843765
7404.49 1.08205
7404.68 1.43596
7404.87 1.99237
7404.97 2.39947
7405.07 2.94091
7405.17 3.67998
7405.26 4.70664
7405.36 6.21206
7405.45 8.45023
7405.55 11.9517
7405.65 17.3357
7405.77 27.7467
7405.90 34.6004
7406.03 27.6582
7406.15 17.2664
7406.24 12.2236
7406.33 8.86346
7406.42 6.62447
7406.51 5.09672
7406.69 3.24636
7406.87 2.23503
7407.04 1.62367
7407.22 1.23050
7407.58 0.775509
7407.93 0.531950
7408.29 0.387630
7408.64 0.294797
7409.00 0.231949
7409.71 0.154466
7410.42 0.110445
7411.13 0.0830898
7411.84 0.0649741
7413.26 0.0432053
7414.69 0.0311903
7416.11 0.0239145
7417.53 0.0192261
7420.37 0.0138948
7423.22 0.0113418
7428.90 0.0102145
7431.75 0.0111088
7434.59 0.0131967
7437.43 0.0172160
7440.28 0.0250604
7443.12 0.0423166
7444.54 0.0596301
7445.96 0.0911590
7447.38 0.157986
7448.10 0.223675
7448.81 0.341206
7449.16 0.438737
7449.52 0.584609
7449.87 0.818434
7450.23 1.22508
7450.58 2.03317
7450.76 2.77318
7450.94 3.99056
7451.12 6.22663
7451.21 8.10567
7451.29 10.9110
7451.38 15.4509
7451.47 23.2707
7451.56 37.8707
7451.65 66.1362
7451.72 105.804
7451.80 132.242
7451.88 105.801
7451.95 66.0910
7452.01 46.9248
7452.06 34.0850
7452.11 25.5078
7452.16 19.7361
7452.27 12.5760
7452.37 8.67034
7452.48 6.29696
7452.59 4.78223
7452.80 3.01830
7453.01 2.07001
7453.22 1.50626
7453.43 1.14457
7453.64 0.899895
7454.06 0.596967
7454.48 0.425082
7454.90 0.317859
7455.32 0.246821
7456.17 0.161190
7457.01 0.113582
7458.70 0.0652525
7460.38 0.0424423
7462.07 0.0298906
7465.44 0.0172498
7472.18 0.00805182
7478.93 0.00475688
7485.67 0.00319832
7492.42 0.00233368
7505.90 0.00145002
7519.39 0.00102683
7532.88 0.000791649
7559.85 0.000558570
7613.81 0.000466618
7640.78 0.000707436
7654.27 0.00171809
7661.01 0.00571474
7664.39 0.0214480
7666.07 0.0825216
7666.49 0.144057
7666.91 0.312626
7667.13 0.537403
7667.34 1.12677
7667.44 1.87895
7667.55 3.69908
7667.60 5.80685
7667.65 10.1887
7667.68 14.6261
7667.70 22.0728
7667.73 36.0491
7667.74 47.5717
7667.76 64.0782
7667.78 102.373
7667.80 128.231
7667.82 102.373
7667.84 64.0783
7667.87 38.3624
7667.89 24.5323
7667.91 16.7327
7667.94 12.0382
7667.98 6.94058
7668.03 4.52085
7668.12 2.32729
7668.21 1.41819
7668.40 0.679348
7668.59 0.397919
7668.96 0.184015
7669.33 0.105834
7670.81 0.0275331
7673.77 0.00728671
7679.71 0.00214495
7691.57 0.000872693
7703.43 0.000667901
7715.29 0.000632585
7739.01 0.000727591
7762.74 0.00100337
7774.60 0.00125276
7786.46 0.00164222
7798.32 0.00229005
7810.18 0.00347700
7816.11 0.00447870
7822.05 0.00600883
7827.98 0.00851531
7833.91 0.0130440
7836.87 0.0168245
7839.84 0.0225399
7842.80 0.0317823
7845.77 0.0481659
7848.73 0.0815086
7850.22 0.112908
7850.96 0.135850
7851.70 0.166530
7852.44 0.208902
7853.18 0.269503
7853.55 0.310158
7853.92 0.360481
7854.29 0.424122
7854.66 0.505648
7855.04 0.612910
7855.41 0.757228
7855.78 0.957120
7856.15 1.24261
7856.52 1.66893
7856.89 2.32991
7857.26 3.40262
7857.63 5.15490
7858.07 8.25125
7858.50 10.3086
7858.94 8.24251
7859.37 5.15378
7859.68 3.64328
7859.98 2.64097
7860.29 1.97329
7860.60 1.51783
7861.21 0.966360
7861.82 0.663762
7862.43 0.482143
7863.04 0.365321
7864.27 0.229837
7865.49 0.157510
7866.72 0.114582
7867.94 0.0870504
7869.17 0.0683577
7871.61 0.0453401
7874.06 0.0322634
7876.51 0.0241301
7878.96 0.0187309
7883.86 0.0122340
7888.75 0.00862531
7893.65 0.00641533
7898.54 0.00496534
7908.34 0.00324127
7918.13 0.00229531
7927.92 0.00172208
7937.72 0.00135014
7957.30 0.000920876
7976.89 0.000722874
7986.68 0.000704001
7996.48 0.000818824
8006.27 0.00173364
8011.17 0.00554603
8013.61 0.0205925
8014.84 0.0786136
8015.45 0.294026
8015.60 0.500913
8015.76 1.03654
8015.83 1.70355
8015.91 3.25562
8015.95 5.01401
8015.99 8.48161
8016.02 16.8115
8016.04 25.6774
8016.06 41.6656
8016.08 67.1199
8016.10 83.2776
8016.12 67.1199
8016.14 41.6657
8016.16 25.6775
8016.18 16.8116
8016.22 8.48171
8016.25 5.01410
8016.29 3.28851
8016.37 1.71612
8016.44 1.04855
8016.60 0.504960
8016.75 0.296759
8017.36 0.0793633
8018.58 0.0207586
8021.01 0.00555392
8025.89 0.00166821
8035.64 0.000662274
8055.14 0.000371204
8074.64 0.000292473
8094.14 0.000252117
8133.15 0.000209745
8172.15 0.000191374
8211.15 0.000189321
8250.15 0.000209675
8289.16 0.000324692
8308.66 0.000748150
8318.41 0.00239820
8323.28 0.00890805
8325.72 0.0344186
8326.94 0.132419
8327.24 0.230040
8327.55 0.493186
8327.70 0.839270
8327.85 1.72180
8327.93 2.79575
8328.01 5.27864
8328.04 7.94296
8328.08 13.1455
8328.10 17.7609
8328.12 25.0218
8328.14 36.9591
8328.16 56.8863
8328.18 91.8303
8328.20 113.707
8328.22 90.1393
8328.24 56.8864
8328.27 34.6417
8328.29 22.3445
8328.31 15.3283
8328.33 11.2255
8328.37 6.55192
8328.42 4.30114
8328.50 2.23311
8328.59 1.36747
8328.76 0.658111
8328.94 0.386428
8329.28 0.179072
8329.63 0.103062
8331.02 0.0267384
8333.79 0.00695373
8339.34 0.00192209
8350.43 0.000664294
8372.62 0.000381599
8394.81 0.000378376
8417.00 0.000448478
8439.19 0.000600889
8461.38 0.000935548
8472.47 0.00127681
8483.57 0.00195408
8489.12 0.00263608
8494.66 0.00410005
8500.21 0.0100978
8502.98 0.0313633
8504.37 0.111784
8504.72 0.192003
8505.06 0.409402
8505.24 0.697034
8505.41 1.43894
8505.50 2.36201
8505.58 4.51388
8505.63 6.94419
8505.67 11.7503
8505.69 16.2800
8505.71 23.3083
8505.74 36.0024
8505.76 57.7999
8505.78 92.1610
8505.80 115.465
8505.82 92.1610
8505.84 57.6680
8505.86 41.8749
8505.87 30.5156
8505.90 17.9450
8505.93 11.4323
8505.96 7.94372
8506.02 4.39659
8506.08 2.77521
8506.20 1.38965
8506.31 0.834796
8506.55 0.396981
8506.78 0.232244
8507.72 0.0644007
8509.61 0.0206518
8513.37 0.0110863
8517.13 0.0119634
8520.89 0.0166716
8522.77 0.0210379
8524.65 0.0278229
8526.53 0.0389642
8528.41 0.0589352
8530.29 0.100076
8532.18 0.207031
8532.65 0.261252
8532.88 0.296614
8533.12 0.339638
8533.59 0.459106
8533.82 0.543735
8534.06 0.653787
8534.29 0.800363
8534.53 1.00120
8534.76 1.28585
8535.00 1.70612
8535.23 2.35787
8535.47 3.42853
8535.58 4.23146
8535.70 5.29617
8535.82 6.74170
8535.94 8.65374
8536.17 13.8365
8536.40 17.2875
8536.63 13.8117
8536.87 8.63420
8537.02 6.24057
8537.17 4.60374
8537.48 2.71573
8537.78 1.75492
8538.09 1.21851
8538.39 0.890956
8538.70 0.678902
8539.31 0.430430
8539.92 0.296386
8540.53 0.216289
8541.75 0.129640
8542.97 0.0862508
8544.19 0.0615294
8545.42 0.0461158
8546.64 0.0358647
8549.08 0.0235037
8551.52 0.0166251
8553.96 0.0124056
8556.41 0.00963461
8561.29 0.00633555
8566.18 0.00452463
8571.06 0.00342721
8575.95 0.00271496
8585.72 0.00188611
8595.49 0.00145485
8615.03 0.00110624
8634.57 0.00113865
8644.34 0.00131583
8654.11 0.00170606
8663.88 0.00260402
8673.65 0.00521286
8683.42 0.0191977
8685.86 0.0335163
8688.31 0.0737043
8689.53 0.128778
8690.75 0.280648
8691.36 0.484156
8691.66 0.680433
8691.97 1.02542
8692.28 1.72076
8692.43 2.36713
8692.58 3.44670
8692.73 5.48103
8692.81 7.22168
8692.89 9.91936
8692.96 14.4716
8693.04 22.6449
8693.08 29.3609
8693.11 39.1585
8693.15 53.7772
8693.19 75.5697
8693.25 120.931
8693.30 151.180
8693.36 120.930
8693.41 75.5691
8693.45 55.2044
8693.48 41.4255
8693.55 24.8421
8693.62 16.2400
8693.69 11.4046
8693.75 8.37914
8693.82 6.42513
8693.96 4.09643
8694.10 2.82504
8694.23 2.06771
8694.51 1.24314
8694.78 0.827307
8695.06 0.590472
8695.61 0.343862
8696.70 0.158232
8697.80 0.0907467
8700.00 0.0412898
8702.19 0.0236424
8706.58 0.0108847
8710.97 0.00638381
8728.53 0.00206919
8746.09 0.00137438
8763.65 0.00130466
8781.21 0.00159698
8798.77 0.00258024
8816.33 0.00735772
8825.11 0.0248524
8827.30 0.0424161
8829.50 0.0913582
8830.60 0.158055
8831.15 0.223596
8831.69 0.340873
8832.24 0.584213
8832.52 0.817485
8832.79 1.22479
8833.07 2.03760
8833.20 2.78144
8833.34 4.01670
8833.48 6.28493
8833.55 8.21611
8833.61 11.1102
8833.68 15.8564
8833.75 23.9967
8833.82 39.6851
8833.85 52.5754
8833.89 70.9325
8833.94 113.816
8834.00 141.869
8834.06 113.815
8834.11 70.9318
8834.18 41.3061
8834.24 25.8449
8834.30 17.2695
8834.37 12.3081
8834.43 9.13609
8834.49 7.05973
8834.62 4.56223
8834.75 3.17380
8834.87 2.33769
8835.13 1.41500
8835.38 0.947309
8835.63 0.678422
8836.14 0.397352
8836.64 0.261015
8837.15 0.185047
8838.16 0.107676
8840.19 0.0511123
8842.21 0.0312622
8846.26 0.0180397
8850.31 0.0155599
8854.36 0.0188727
8858.41 0.0334048
8860.44 0.0544990
8861.45 0.0754918
8862.46 0.113317
8863.47 0.192192
8863.98 0.268242
8864.49 0.401743
8864.99 0.668927
8865.25 0.916045
8865.50 1.33008
8865.75 2.10070
8865.88 2.76348
8866.00 3.77800
8866.13 5.46414
8866.26 8.46421
8866.32 10.9442
8866.38 14.4747
8866.45 19.6706
8866.51 27.4030
8866.61 43.7804
8866.70 54.8074
8866.80 43.7792
8866.89 27.4022
8866.99 16.2968
8867.09 10.3656
8867.19 7.04456
8867.29 5.05584
8867.40 3.77816
8867.50 2.93008
8867.70 1.90330
8867.90 1.33019
8868.10 0.982375
8868.51 0.597582
8868.91 0.401741
8869.32 0.288856
8870.13 0.170582
8870.94 0.113172
8871.75 0.0810636
8873.37 0.0483603
8876.61 0.0245052
8879.85 0.0162971
8886.33 0.0115065
8892.81 0.0121856
8896.05 0.0140726
8899.28 0.0174520
8902.52 0.0233579
8905.76 0.0342617
8907.38 0.0433670
8909.00 0.0570445
8912.24 0.116718
8913.05 0.147024
8913.86 0.191000
8914.67 0.258187
8915.08 0.305883
8915.48 0.368023
8915.89 0.450972
8916.29 0.564939
8916.70 0.727041
8917.10 0.967478
8917.51 1.34266
8917.91 1.96433
8918.12 2.43338
8918.32 3.06196
8918.52 3.91413
8918.72 5.05956
8919.11 8.09540
8919.50 10.1106
8919.89 8.08617
8920.28 5.05216
8920.72 2.92801
8921.16 1.82367
8921.60 1.22202
8922.04 0.868552
8922.49 0.646281
8922.93 0.498479
8923.81 0.321386
8924.69 0.223902
8925.57 0.164781
8927.34 0.0999301
8929.10 0.0670463
8930.86 0.0481392
8932.63 0.0362820
8934.39 0.0283633
8937.92 0.0187605
8941.45 0.0133809
8944.97 0.0100618
8948.50 0.00786941
8955.56 0.00523843
8962.61 0.00377657
8969.67 0.00287981
8976.72 0.00229083
8990.83 0.00159806
9004.94 0.00125777
9012.00 0.00119723
9019.05 0.00129388
9026.11 0.00227442
9029.63 0.00641709
9031.40 0.0226633
9032.28 0.0843312
9032.72 0.306131
9032.94 1.02072
9033.05 2.91284
9033.10 6.56092
9033.13 11.3792
9033.16 21.8749
9033.18 35.0774
9033.20 43.6951
9033.22 35.0774
9033.24 21.8208
9033.27 10.8982
9033.30 6.11867
9033.36 2.61353
9033.48 0.895992
9033.72 0.265347
9034.19 0.0726834
9035.15 0.0195518
9037.05 0.00557080
9040.87 0.00197391
9048.49 0.00105045
9063.75 0.000906934
9079.00 0.00167924
9086.63 0.00508668
9090.44 0.0186149
9092.35 0.0712632
9093.30 0.270016
9093.54 0.465160
9093.78 0.980150
9093.90 1.63343
9094.02 3.23806
9094.08 5.11303
9094.13 9.07486
9094.16 13.0447
9094.19 20.0859
9094.22 33.8120
9094.24 45.5201
9094.25 61.0822
9094.28 98.4975
9094.30 122.035
9094.32 96.8379
9094.35 60.9525
9094.37 40.3045
9094.39 27.6151
9094.41 19.7729
9094.43 14.9341
9094.47 9.07500
9094.51 6.10704
9094.58 3.26039
9094.66 2.01677
9094.82 0.987676
9094.98 0.583644
9095.30 0.272751
9095.61 0.157705
9096.87 0.0413062
9099.40 0.0108738
9104.45 0.00309309
9114.55 0.00112210
9134.74 0.000644880
9154.94 0.000616305
9175.14 0.000727658
9195.34 0.00104159
9205.43 0.00136862
9215.53 0.00196944
9220.58 0.00247646
9225.63 0.00325102
9230.68 0.00452216
9235.73 0.00683094
9238.25 0.00877109
9240.78 0.0117280
9243.30 0.0165630
9245.83 0.0252845
9247.09 0.0325629
9248.35 0.0435567
9249.62 0.0613186
9250.88 0.0927947
9252.14 0.156850
9253.40 0.319971
9253.72 0.401248
9254.03 0.517195
9254.35 0.691707
9254.66 0.969004
9254.82 1.17401
9254.98 1.44961
9255.14 1.83097
9255.30 2.37253
9255.45 3.18215
9255.61 4.43847
9255.77 6.46637
9255.93 9.75028
9256.11 15.5999
9256.30 19.4993
9256.49 15.5992
9256.67 9.74953
9256.81 6.78448
9256.95 4.86130
9257.09 3.59258
9257.22 2.74519
9257.50 1.72937
9257.77 1.17982
9258.05 0.853058
9258.32 0.644254
9258.87 0.403624
9259.42 0.276013
9259.97 0.200493
9260.52 0.152195
9261.07 0.119472
9262.17 0.0792779
9263.27 0.0564850
9264.37 0.0423350
9265.47 0.0329641
9267.67 0.0217050
9269.87 0.0154752
9272.07 0.0116828
9274.27 0.00921622
9278.67 0.00634262
9283.07 0.00485529
9287.47 0.00406661
9291.87 0.00370728
9300.67 0.00401321
9305.07 0.00485103
9309.47 0.00664052
9313.87 0.0107288
9318.27 0.0225507
9320.47 0.0389604
9321.57 0.0552669
9322.67 0.0848467
9323.77 0.147216
9324.32 0.208274
9324.87 0.317274
9325.42 0.541388
9325.69 0.754865
9325.97 1.12441
9326.24 1.84801
9326.38 2.50463
9326.52 3.56903
9326.66 5.48920
9326.72 7.07080
9326.79 9.37604
9326.86 13.0143
9326.93 18.9242
9327.00 29.4451
9327.07 48.2799
9327.13 77.2048
9327.20 96.5656
9327.27 77.2033
9327.33 48.2790
9327.38 33.6360
9327.43 23.9446
9327.48 17.6404
9327.53 13.4915
9327.63 8.48791
9327.73 5.78560
9327.83 4.18056
9327.93 3.15567
9328.13 1.97538
9328.32 1.34984
9328.52 0.979784
9328.72 0.743167
9328.92 0.582873
9329.31 0.385995
9329.71 0.274336
9330.50 0.159008
9331.29 0.103741
9332.09 0.0730619
9333.67 0.0419665
9336.84 0.0192618
9340.01 0.0111745
9346.34 0.00532028
9352.68 0.00325085
9378.03 0.00139208
9390.70 0.00146623
9397.04 0.00172865
9403.37 0.00230337
9406.54 0.00281998
9409.71 0.00363136
9412.88 0.00499038
9416.05 0.00749518
9417.63 0.00961934
9419.22 0.0128728
9420.80 0.0182221
9422.39 0.0279367
9423.97 0.0484548
9424.76 0.0685777
9425.55 0.104574
9426.35 0.178826
9427.14 0.373181
9427.53 0.616296
9427.73 0.837428
9427.93 1.20124
9428.13 1.85991
9428.23 2.40766
9428.33 3.22842
9428.42 4.52715
9428.47 5.48332
9428.52 6.72197
9428.57 8.42449
9428.62 10.7088
9428.67 13.9331
9428.72 18.2691
9428.81 29.2954
9428.90 36.5372
9428.95 34.3651
9428.99 29.1641
9429.08 18.2684
9429.17 11.3883
9429.25 7.47334
9429.34 5.18841
9429.43 3.79228
9429.51 2.87087
9429.60 2.24876
9429.77 1.47759
9429.95 1.04174
9430.12 0.772714
9430.46 0.472690
9430.81 0.318401
9431.16 0.228875
9431.50 0.172396
9431.85 0.134511
9432.54 0.0884451
9433.23 0.0625784
9433.92 0.0466238
9434.62 0.0360960
9436.00 0.0234993
9437.39 0.0165471
9438.77 0.0123056
9440.15 0.00952848
9442.92 0.00623113
9445.69 0.00442249
9448.46 0.00332265
9451.23 0.00260391
9456.76 0.00175021
9462.30 0.00127990
9473.37 0.000802184
9484.45 0.000573333
9495.52 0.000444473
9517.67 0.000310792
9539.82 0.000249842
9561.96 0.000234551
9584.11 0.000349889
9595.18 0.000907597
9600.72 0.00315475
9603.49 0.0119937
9604.87 0.0460675
9605.56 0.172594
9605.91 0.608953
9606.08 1.91467
9606.17 4.99315
9606.21 9.92650
9606.24 15.3683
9606.26 25.0000
9606.28 39.7411
9606.30 50.0003
9606.32 39.7411
9606.34 25.0001
9606.37 13.8371
9606.40 8.45249
9606.45 3.89384
9606.55 1.41215
9606.77 0.429970
9607.19 0.119012
9608.03 0.0314447
9609.72 0.00816743
9613.09 0.00217023
9619.84 0.000644121
9633.33 0.000253657
9660.32 0.000147262
9714.29 0.000117556
9768.27 0.000161544
9795.25 0.000388986
9808.75 0.00130899
9815.50 0.00495838
9818.87 0.0192636
9820.56 0.0742357
9821.40 0.276787
9821.61 0.470200
9821.82 0.967015
9821.93 1.57791
9822.03 2.98382
9822.08 4.51574
9822.14 7.46000
9822.19 14.3716
9822.22 21.2578
9822.24 33.1455
9822.27 53.1786
9822.30 66.2921
9822.33 53.1784
9822.36 33.1455
9822.38 23.0454
9822.40 16.3660
9822.45 9.25246
9822.49 5.77770
9822.53 3.95027
9822.62 2.14979
9822.71 1.35039
9822.88 0.667700
9823.05 0.397489
9823.75 0.108036
9825.13 0.0282189
9827.91 0.00726199
9833.46 0.00189265
9844.56 0.000532702
9866.77 0.000189865
9911.18 0.000104361
9955.59 9.18542E-05
10000.0 9.44473E-05
10050.2 0.000112671
10075.3 0.000132998
10100.4 0.000170609
10125.5 0.000250831
10138.1 0.000330416
10150.6 0.000475447
10156.9 0.000598028
10163.2 0.000785665
10169.5 0.00109580
10175.7 0.00166260
10178.9 0.00214306
10182.0 0.00288057
10185.2 0.00409797
10188.3 0.00631475
10191.4 0.0110638
10193.0 0.0157850
10194.6 0.0243634
10196.1 0.0425124
10196.9 0.0604982
10197.7 0.0923428
10198.5 0.159245
10199.3 0.333446
10199.7 0.552256
10200.1 1.08198
10200.3 1.70449
10200.4 2.23369
10200.4 2.94491
10200.5 4.19648
10200.6 5.12548
10200.6 6.37444
10200.7 8.08972
10200.7 10.4915
10200.8 13.8925
10200.8 17.7881
10200.9 28.9457
10201.0 35.4701
10201.1 28.9452
10201.2 17.6823
10201.2 11.7111
10201.3 7.69973
10201.4 5.34559
10201.5 3.89142
10201.6 2.94473
10201.6 2.29931
10201.8 1.50674
10202.0 1.06013
10202.1 0.785113
10202.4 0.479164
10202.8 0.322227
10203.1 0.231326
10203.4 0.174055
10203.7 0.135676
10204.4 0.0890595
10205.0 0.0629129
10205.6 0.0467989
10206.3 0.0361729
10207.6 0.0234749
10208.8 0.0164670
10210.1 0.0121956
10211.4 0.00940160
10214.0 0.00609026
10216.5 0.00427799
10219.1 0.00318003
10221.6 0.00246754
10226.8 0.00162414
10231.9 0.00116631
10237.0 0.000891549
10242.1 0.000715196
10252.3 0.000512800
10262.6 0.000411321
10283.0 0.000341972
10303.5 0.000384826
10324.0 0.000621286
10344.4 0.00198973
10354.7 0.00739651
10359.8 0.0284707
10361.1 0.0497644
10362.3 0.108597
10363.0 0.187477
10363.6 0.398173
10363.9 0.668590
10364.1 0.920139
10364.3 1.34420
10364.4 2.14064
10364.5 2.82857
10364.6 3.89950
10364.7 5.68585
10364.7 8.94193
10364.8 11.6267
10364.8 15.5481
10364.9 21.3876
10364.9 28.2652
10364.9 44.7382
10365.0 56.4843
10365.1 44.7376
10365.1 28.2648
10365.2 16.7956
10365.2 10.8605
10365.3 7.46769
10365.4 5.40427
10365.4 3.89961
10365.5 3.05156
10365.6 2.00759
10365.7 1.37996
10365.9 1.02830
10366.1 0.633097
10366.6 0.304900
10367.1 0.178651
10368.1 0.0827950
10369.0 0.0476164
10371.0 0.0216422
10373.0 0.0124036
10380.8 0.00334087
10396.5 0.00119299
10412.2 0.00167572
10420.1 0.00521202
10424.0 0.0194841
10426.0 0.0746433
10427.0 0.280228
10427.2 0.484572
10427.5 0.995015
10427.6 1.69572
10427.7 3.27745
10427.8 5.04091
10427.8 8.66902
10427.9 12.0867
10427.9 17.8417
10427.9 28.3356
10427.9 40.4074
10427.9 58.2304
10428.0 86.4404
10428.0 111.947
10428.0 116.234
10428.0 86.4402
10428.1 58.2303
10428.1 40.4074
10428.1 28.3357
10428.1 20.6312
10428.1 15.5558
10428.2 9.63200
10428.2 7.12300
10428.3 3.74679
10428.4 2.42621
10428.5 1.20179
10428.7 0.714261
10429.0 0.335635
10429.3 0.194226
10430.5 0.0508364
10432.9 0.0131817
10437.6 0.00352416
10447.2 0.00104784
10466.4 0.000398100
10504.8 0.000223712
10543.1 0.000206189
10581.5 0.000232855
10619.8 0.000305926
10639.0 0.000374095
10658.2 0.000486432
10677.4 0.000697556
10696.6 0.00121341
10715.7 0.00362441
10725.3 0.0126808
10727.7 0.0219034
10730.1 0.0476650
10731.3 0.0831121
10732.5 0.181435
10733.1 0.313961
10733.4 0.442773
10733.7 0.670874
10734.0 1.13380
10734.2 1.56842
10734.3 2.30857
10734.5 3.72047
10734.5 5.06350
10734.6 6.92216
10734.7 10.5764
10734.8 16.6022
10734.8 22.4495
10734.8 28.8603
10734.9 41.7492
10734.9 56.1747
10735.0 89.9621
10735.0 112.521
10735.1 89.9612
10735.1 56.1742
10735.2 34.5487
10735.2 24.3500
10735.2 16.6023
10735.3 12.6948
10735.4 7.63867
10735.5 5.28052
10735.5 3.72064
10735.6 2.75796
10735.8 1.72678
10736.0 1.15693
10736.2 0.842780
10736.5 0.503933
10737.2 0.234329
10737.9 0.136014
10739.3 0.0624468
10740.7 0.0359885
10743.4 0.0167893
10746.2 0.0100225
10757.3 0.00373047
10762.9 0.00318653
10768.5 0.00309207
10779.6 0.00376084
10785.1 0.00457281
10790.7 0.00590518
10796.2 0.00815648
10801.8 0.0122640
10804.6 0.0157029
10807.4 0.0208966
10810.1 0.0292633
10812.9 0.0440063
10815.7 0.0736726
10817.1 0.101265
10818.5 0.147776
10819.2 0.184283
10819.9 0.235140
10820.6 0.311299
10820.9 0.363776
10821.3 0.428247
10821.6 0.513745
10822.0 0.626625
10822.3 0.779297
10822.6 0.984350
10823.0 1.28499
10823.3 1.71304
10823.7 2.37474
10824.0 3.33846
10824.5 5.33144
10825.0 6.65574
10825.5 5.33082
10826.0 3.33785
10826.3 2.42108
10826.6 1.79108
10827.3 1.05890
10827.9 0.686009
10828.5 0.479099
10829.2 0.350520
10829.8 0.266983
10831.1 0.169710
10832.4 0.116817
10833.6 0.0854242
10836.2 0.0513318
10838.7 0.0341754
10841.3 0.0244215
10843.8 0.0183124
10846.4 0.0142641
10851.4 0.00937150
10856.5 0.00664761
10861.6 0.00497817
10866.7 0.00388266
10876.9 0.00258277
10887.1 0.00187833
10897.3 0.00146327
10907.4 0.00121095
10927.8 0.00100238
10938.0 0.00102972
10948.2 0.00119319
10958.4 0.00165486
10968.5 0.00309305
10973.6 0.00514125
10978.7 0.0109821
10981.3 0.0191120
10983.8 0.0418778
10985.1 0.0733901
10986.4 0.160017
10987.0 0.277533
10987.3 0.391959
10987.6 0.586439
10987.9 0.989418
10988.1 1.36676
10988.3 2.00748
10988.4 3.22418
10988.5 4.28727
10988.6 5.96192
10988.7 8.80234
10988.7 14.1094
10988.8 18.5936
10988.8 25.2923
10988.9 35.5337
10988.9 46.5867
10989.0 77.4066
10989.0 93.5176
10989.1 71.9515
10989.1 46.5862
10989.2 32.5475
10989.2 25.2922
10989.2 16.1363
10989.3 11.0114
10989.4 7.93229
10989.4 5.70473
10989.5 4.45576
10989.6 2.92468
10989.7 2.00759
10989.9 1.49485
10990.1 0.903238
10990.4 0.603755
10990.6 0.431713
10991.1 0.254383
10992.1 0.117855
10993.1 0.0677847
10995.1 0.0309258
10997.0 0.0177174
11001.0 0.00813606
11005.0 0.00474017
11020.8 0.00143227
11052.5 0.000663067
11068.3 0.000691244
11076.3 0.000794631
11084.2 0.00101913
11092.1 0.00153277
11096.1 0.00205374
11100.0 0.00300997
11104.0 0.00505796
11106.0 0.00709814
11108.0 0.0108167
11109.9 0.0187323
11110.9 0.0265708
11111.9 0.0407553
11112.9 0.0705781
11113.4 0.100077
11113.9 0.151529
11114.4 0.259228
11114.9 0.531478
11115.1 0.872818
11115.4 1.68228
11115.5 2.62609
11115.6 4.38637
11115.7 5.96812
11115.8 8.48931
11115.8 10.3186
11115.8 12.7073
11115.8 15.8371
11115.9 19.8977
11115.9 32.7249
11116.0 39.6422
11116.0 36.2376
11116.1 30.7846
11116.1 19.7454
11116.2 12.7070
11116.3 8.48907
11116.3 5.96792
11116.4 4.38621
11116.5 2.62598
11116.6 1.79104
11116.7 1.26132
11116.8 0.934699
11117.1 0.581497
11117.3 0.390014
11117.5 0.283125
11118.0 0.166905
11118.5 0.109980
11119.0 0.0779535
11119.9 0.0451172
11120.8 0.0294967
11121.8 0.0208752
11123.6 0.0122376
11125.5 0.00820904
11127.4 0.00607770
11131.1 0.00418736
11134.9 0.00392952
11138.7 0.00562071
11142.4 0.0173364
11144.3 0.0643143
11145.2 0.243393
11145.5 0.425345
11145.7 0.890302
11145.8 1.51240
11145.9 2.89287
11146.0 4.60434
11146.0 8.36734
11146.1 12.1600
11146.1 18.9853
11146.1 32.4477
11146.2 50.7750
11146.2 86.6868
11146.2 101.815
11146.2 86.6867
11146.2 50.7750
11146.3 39.6067
11146.3 26.8483
11146.3 18.9854
11146.3 13.9811
11146.4 8.36742
11146.4 6.07924
11146.5 3.10445
11146.5 1.98037
11146.7 0.963672
11146.8 0.567486
11147.4 0.154916
11148.6 0.0410150
11151.0 0.0109814
11155.7 0.00322837
11165.2 0.00116069
11174.6 0.000744370
11184.1 0.000620822
11203.0 0.000937626
11212.5 0.00275300
11217.2 0.0100523
11219.6 0.0387428
11220.8 0.147830
11221.4 0.543171
11221.5 0.922902
11221.7 1.89769
11221.7 3.20173
11221.8 5.83194
11221.9 9.03747
11221.9 13.4361
11221.9 25.8739
11221.9 38.2748
11222.0 50.2362
11222.0 84.6334
11222.0 99.7331
11222.0 84.6334
11222.0 50.2362
11222.1 31.3081
11222.1 21.6209
11222.1 11.6814
11222.2 7.18031
11222.2 4.82529
11222.3 2.42434
11222.4 1.52508
11222.6 0.734009
11222.7 0.429739
11223.4 0.114214
11224.8 0.0296016
11227.5 0.00769635
11232.9 0.00212176
11243.8 0.000706067
11265.5 0.000353504
11309.0 0.000359735
11352.4 0.000985586
11374.2 0.00358264
11385.0 0.0138523
11387.7 0.0243834
11390.4 0.0538113
11391.8 0.0941946
11393.2 0.205681
11393.8 0.354999
11394.2 0.499303
11394.5 0.753191
11394.9 1.26321
11395.0 1.73680
11395.2 2.53367
11395.4 4.02610
11395.5 5.40524
11395.5 7.30682
11395.6 10.8813
11395.7 16.6325
11395.8 27.7395
11395.8 37.1724
11395.9 52.4569
11395.9 85.6523
11396.0 105.169
11396.1 85.6513
11396.1 52.4563
11396.2 29.7777
11396.3 18.7328
11396.4 12.0145
11396.4 8.64522
11396.5 6.25140
11396.6 4.87712
11396.7 3.19612
11396.9 2.19976
11397.0 1.63589
11397.3 0.989238
11397.6 0.661542
11397.9 0.473154
11398.5 0.276215
11399.6 0.127464
11400.8 0.0730915
11403.1 0.0330615
11405.4 0.0188296
11410.1 0.00849799
11414.7 0.00484515
11433.3 0.00129506
11470.5 0.000404892
11507.7 0.000251095
11544.9 0.000219949
11582.1 0.000254872
11600.7 0.000309520
11619.3 0.000419096
11628.6 0.000514898
11637.9 0.000663858
11647.2 0.000911856
11656.5 0.00136754
11661.1 0.00175426
11665.8 0.00234794
11670.4 0.00332721
11675.1 0.00511512
11677.4 0.00662658
11679.7 0.00892587
11682.1 0.0127122
11684.4 0.0195354
11685.6 0.0252924
11686.7 0.0339476
11687.9 0.0479612
11689.0 0.0728689
11690.2 0.123730
11691.4 0.254376
11691.9 0.413962
11692.1 0.479719
11692.2 0.556155
11692.5 0.784983
11692.8 1.18587
11693.0 1.52159
11693.1 1.97576
11693.3 2.71399
11693.4 3.80883
11693.5 4.72110
11693.5 5.77153
11693.6 7.13445
11693.7 9.00076
11693.8 14.3280
11694.0 18.0010
11694.1 16.9166
11694.2 14.3275
11694.3 9.00029
11694.5 5.77117
11694.6 3.90877
11694.7 2.77622
11694.9 2.05602
11695.2 1.24356
11695.4 0.827051
11695.7 0.587790
11696.0 0.438474
11696.6 0.270213
11697.1 0.181684
11697.7 0.131115
11698.3 0.0990341
11698.8 0.0774263
11699.9 0.0508714
11701.1 0.0360636
11702.2 0.0268978
11703.3 0.0208343
11705.6 0.0135412
11707.8 0.00951178
11710.1 0.00705389
11712.3 0.00545103
11716.8 0.00354025
11721.3 0.00249564
11725.8 0.00186060
11730.3 0.00144765
11739.3 0.000959437
11748.3 0.000693376
11757.2 0.000532802
11766.2 0.000428816
11784.2 0.000307216
11802.2 0.000242685
11838.1 0.000184189
11874.1 0.000168516
11910.0 0.000185307
11946.0 0.000313032
11964.0 0.000804081
11973.0 0.00273220
11977.5 0.0103252
11979.7 0.0400828
11980.8 0.152895
11981.4 0.559585
11981.5 0.938648
11981.7 1.88438
11981.7 2.99859
11981.8 5.46196
11981.9 8.46418
11981.9 12.5838
11981.9 24.2327
11981.9 35.8471
11982.0 47.0498
11982.0 79.2652
11982.0 93.4071
11982.0 79.2651
11982.0 47.0498
11982.1 35.8471
11982.1 24.2328
11982.1 12.5839
11982.2 7.52185
11982.2 4.95777
11982.3 2.59708
11982.4 1.58859
11982.5 0.768291
11982.7 0.450891
11983.3 0.120213
11984.6 0.0313847
11987.1 0.00810297
11992.2 0.00218177
12002.4 0.000693403
12022.8 0.000343920
12063.5 0.000352436
12104.2 0.000640782
12124.6 0.00121077
12134.8 0.00254833
12139.9 0.00685622
12142.4 0.0229456
12143.7 0.0833027
12144.3 0.303805
12144.6 1.03731
12144.7 1.66641
12144.8 3.08561
12144.9 7.33939
12144.9 13.2528
12144.9 25.7092
12145.0 38.9032
12145.0 51.3205
12145.0 38.9031
12145.1 25.7092
12145.1 13.2528
12145.1 8.40477
12145.2 4.11017
12145.3 2.21698
12145.3 1.46454
12145.6 0.443314
12146.1 0.125583
12147.1 0.0343970
12149.2 0.0104821
12153.3 0.00479080
12161.5 0.00554493
12169.7 0.0161358
12171.8 0.0267407
12173.8 0.0559169
12174.8 0.0957718
12175.9 0.203938
12176.4 0.351511
12176.9 0.737115
12177.1 1.24069
12177.3 1.71169
12177.4 2.43072
12177.5 3.86252
12177.6 5.21415
12177.7 7.01074
12177.7 10.5166
12177.8 15.9417
12177.8 26.2264
12177.9 34.7927
12177.9 47.4366
12178.0 75.7496
12178.0 95.2085
12178.1 75.7489
12178.1 47.4363
12178.1 31.5904
12178.2 21.9943
12178.2 15.9420
12178.3 11.9851
12178.3 7.39686
12178.4 4.98229
12178.5 3.57188
12178.6 2.68154
12178.7 1.66732
12178.9 1.11086
12179.1 0.807538
12179.4 0.482406
12180.0 0.227726
12180.7 0.134796
12182.0 0.0652859
12183.3 0.0412488
12185.9 0.0260654
12188.5 0.0253266
12191.0 0.0345534
12193.6 0.0666671
12194.9 0.111914
12196.2 0.233697
12196.9 0.393067
12197.2 0.540173
12197.5 0.788891
12197.8 1.27928
12198.0 1.69812
12198.2 2.35746
12198.3 3.47599
12198.5 5.57200
12198.6 7.35384
12198.6 10.0413
12198.7 14.2269
12198.8 21.2015
12198.9 34.2904
12199.0 42.3514
12199.1 34.2897
12199.2 21.2010
12199.3 12.4306
12199.4 7.92258
12199.6 5.22327
12199.7 3.77004
12199.8 2.76998
12199.9 2.16093
12200.1 1.41593
12200.3 0.982689
12200.6 0.730171
12201.0 0.443867
12201.5 0.298184
12201.9 0.214208
12202.8 0.126192
12204.6 0.0594787
12206.4 0.0350009
12210.0 0.0169758
12213.6 0.0105696
12220.8 0.00624813
12228.0 0.00548925
12235.2 0.00683725
12242.4 0.0125781
12246.0 0.0210010
12249.6 0.0449113
12251.4 0.0776702
12252.3 0.109911
12253.2 0.167788
12254.1 0.287834
12254.6 0.403273
12255.0 0.605245
12255.5 1.00743
12255.7 1.38780
12255.9 1.99360
12256.2 3.16554
12256.3 4.12005
12256.4 5.56646
12256.5 8.17060
12256.6 12.4240
12256.7 20.5268
12256.8 28.0460
12256.8 36.9363
12256.9 59.1690
12257.0 74.0199
12257.1 59.1678
12257.2 36.9355
12257.3 22.7125
12257.4 14.7571
12257.5 10.1751
12257.5 7.37616
12257.6 5.56663
12257.7 4.33864
12257.9 2.83693
12258.1 1.99374
12258.3 1.47559
12258.6 0.911183
12259.0 0.611417
12259.3 0.442149
12260.0 0.260272
12260.8 0.170482
12261.5 0.120908
12262.9 0.0700686
12265.7 0.0324884
12268.6 0.0192560
12274.3 0.0118361
12277.1 0.0194278
12278.5 0.0559768
12279.2 0.193123
12279.6 0.676165
12279.8 2.15220
12279.9 5.66882
12279.9 10.4462
12279.9 15.0656
12280.0 23.4975
12280.0 39.8649
12280.0 46.6994
12280.0 39.8649
12280.0 23.4975
12280.1 15.0656
12280.1 10.4461
12280.1 5.66876
12280.2 2.15206
12280.4 0.675864
12280.8 0.192522
12281.5 0.0547933
12282.9 0.0170379
12285.7 0.00661156
12291.4 0.00322297
12302.8 0.00166629
12325.6 0.000811110
12371.2 0.000389630
12416.8 0.000281469
12462.4 0.000260401
12508.0 0.000299028
12530.8 0.000351465
12553.6 0.000448548
12576.4 0.000645055
12587.8 0.000828163
12599.2 0.00114182
12610.6 0.00176587
12616.3 0.00235525
12621.9 0.00338811
12624.8 0.00423852
12627.6 0.00551800
12630.5 0.00758918
12633.3 0.0113055
12634.8 0.0144161
12636.2 0.0190975
12637.6 0.0267642
12639.0 0.0404116
12640.5 0.0689651
12641.2 0.0963232
12641.9 0.144279
12642.6 0.240111
12643.3 0.476748
12643.7 0.757349
12643.9 0.999227
12644.0 1.34902
12644.2 1.95505
12644.3 2.41557
12644.4 3.04817
12644.5 3.94076
12644.6 5.23374
12644.7 7.14280
12644.7 9.61683
12644.9 15.5910
12645.0 19.2317
12645.1 15.5906
12645.3 9.61648
12645.4 7.14252
12645.4 5.41047
12645.6 3.31107
12645.8 2.19346
12645.9 1.54699
12646.1 1.12500
12646.2 0.866023
12646.6 0.557028
12646.9 0.383598
12647.2 0.282562
12647.9 0.170507
12648.5 0.114230
12649.2 0.0820826
12649.8 0.0620350
12650.5 0.0488830
12651.8 0.0327951
12653.1 0.0239234
12654.4 0.0185698
12655.6 0.0151634
12658.2 0.0113353
12660.8 0.00963177
12666.0 0.00942424
12671.2 0.0129993
12673.8 0.0173419
12676.4 0.0255872
12679.0 0.0435272
12680.3 0.0613772
12681.6 0.0933324
12682.9 0.160572
12683.5 0.225797
12684.2 0.338604
12684.5 0.433197
12684.8 0.568541
12685.2 0.786985
12685.5 1.14467
12685.8 1.84123
12686.0 2.42846
12686.1 3.34048
12686.3 4.85796
12686.5 7.61820
12686.5 9.89381
12686.6 13.2246
12686.7 18.2165
12686.8 25.8130
12686.9 41.9949
12687.0 51.7194
12687.1 41.9938
12687.2 25.8123
12687.3 18.2161
12687.4 13.2244
12687.5 9.89377
12687.6 7.61823
12687.7 4.73632
12687.9 3.26986
12688.1 2.34106
12688.2 1.78302
12688.5 1.13009
12688.9 0.770383
12689.2 0.563327
12689.5 0.426283
12689.8 0.336096
12690.5 0.221763
12691.1 0.158013
12692.4 0.0919423
12693.8 0.0599969
12695.1 0.0423910
12697.7 0.0244839
12702.9 0.0113250
12708.1 0.00660697
12718.5 0.00316038
12728.9 0.00192284
12749.8 0.00102439
12770.6 0.000723140
12791.4 0.000620663
12812.3 0.000645892
12833.1 0.000971972
12843.5 0.00211019
12848.7 0.00637982
12851.3 0.0228212
12852.6 0.0850386
12853.3 0.308539
12853.6 1.05887
12853.8 3.03006
12853.9 6.86824
12853.9 11.8893
12853.9 24.9116
12854.0 38.7320
12854.0 49.8675
12854.0 38.7319
12854.1 24.9116
12854.1 13.9006
12854.1 8.90537
12854.2 4.39425
12854.3 1.67697
12854.6 0.511574
12855.0 0.144737
12856.0 0.0390700
12858.0 0.0107287
12861.9 0.00345679
12869.8 0.00181114
12885.5 0.00240301
12893.3 0.00381918
12901.1 0.00793719
12905.1 0.0136791
12909.0 0.0297903
12911.0 0.0518642
12911.9 0.0736377
12912.9 0.112847
12913.9 0.194609
12914.4 0.273707
12914.9 0.413046
12915.4 0.693556
12915.6 0.961475
12915.9 1.39541
12916.1 2.24899
12916.2 2.96178
12916.3 4.06661
12916.5 6.10585
12916.6 9.62555
12916.7 12.5503
12916.7 16.8659
12916.8 23.4051
12916.8 34.1655
12916.9 55.4433
12917.0 68.3133
12917.1 55.4423
12917.2 34.1649
12917.2 24.7911
12917.3 17.7729
12917.3 13.1551
12917.4 10.0413
12917.5 6.32113
12917.6 4.43748
12917.8 3.19227
12917.9 2.40132
12918.1 1.52234
12918.3 1.03353
12918.6 0.756131
12919.0 0.454496
12919.5 0.300518
12920.0 0.213348
12920.9 0.124100
12921.8 0.0808035
12922.8 0.0570243
12924.6 0.0327568
12928.4 0.0150586
12932.1 0.00878387
12939.6 0.00427037
12947.1 0.00272321
12977.0 0.00168393
12991.9 0.00222190
13006.9 0.00416248
13014.3 0.00695253
13021.8 0.0148618
13025.6 0.0257867
13027.4 0.0366257
13029.3 0.0561256
13031.2 0.0973218
13032.1 0.137856
13033.0 0.209297
13033.5 0.268684
13034.0 0.357464
13034.4 0.498719
13034.9 0.736502
13035.4 1.20849
13035.6 1.62247
13035.8 2.28822
13036.1 3.52318
13036.3 5.89750
13036.4 8.15746
13036.5 11.4754
13036.6 17.6096
13036.8 28.1367
13036.9 45.2600
13037.0 56.3120
13037.1 45.2587
13037.2 28.1360
13037.4 18.2982
13037.5 12.6998
13037.6 9.18657
13037.7 6.89708
13037.9 4.24956
13038.1 2.85941
13038.3 2.01716
13038.5 1.51636
13038.9 0.944245
13039.3 0.637638
13039.7 0.462491
13040.1 0.348395
13040.5 0.273385
13041.3 0.180371
13042.1 0.127898
13043.7 0.0739587
13045.3 0.0482251
13047.0 0.0339827
13050.2 0.0196202
13056.7 0.00915225
13063.1 0.00547466
13076.1 0.00293187
13089.0 0.00226062
13114.9 0.00389615
13127.9 0.0128638
13131.1 0.0221528
13134.4 0.0481236
13136.0 0.0836756
13136.8 0.118651
13137.6 0.181434
13138.4 0.311670
13138.8 0.438918
13139.2 0.656096
13139.6 1.10040
13139.8 1.50021
13140.0 2.16229
13140.2 3.37284
13140.3 4.38995
13140.4 5.92992
13140.5 8.40208
13140.6 12.6679
13140.7 20.6599
13140.8 27.2384
13140.8 36.7018
13140.9 59.9792
13141.0 73.4282
13141.1 59.9782
13141.2 36.7012
13141.3 23.0197
13141.3 14.5398
13141.4 9.81925
13141.5 7.01105
13141.6 5.23151
13141.7 4.04218
13141.9 2.66883
13142.1 1.85354
13142.2 1.38217
13142.6 0.841117
13142.9 0.564752
13143.3 0.405081
13144.0 0.237426
13144.7 0.155027
13145.4 0.109674
13146.8 0.0632635
13149.6 0.0289648
13152.4 0.0167148
13158.0 0.00780125
13163.6 0.00464154
13174.8 0.00237154
13186.1 0.00159674
13208.5 0.00127079
13219.7 0.00206585
13225.3 0.00556381
13228.2 0.0194262
13229.6 0.0725845
13230.3 0.268324
13230.6 0.933030
13230.7 1.54041
13230.8 2.99827
13230.8 4.89149
13230.9 8.00102
13230.9 14.9898
13230.9 21.9680
13231.0 38.6222
13231.0 63.6152
13231.0 76.5085
13231.0 63.6152
13231.0 38.6222
13231.1 27.0917
13231.1 18.0329
13231.1 9.22260
13231.2 5.47686
13231.2 3.59819
13231.3 1.87949
13231.4 1.21390
13231.7 0.356561
13232.3 0.0958287
13233.5 0.0255771
13235.9 0.00714728
13240.7 0.00242947
13250.4 0.00125746
13269.8 0.00107944
13289.2 0.00128656
13308.5 0.00179344
13327.9 0.00294906
13337.6 0.00411678
13347.3 0.00624664
13352.1 0.00804157
13357.0 0.0107686
13361.8 0.0152126
13366.6 0.0231824
13369.1 0.0297817
13371.5 0.0396850
13373.9 0.0555243
13376.3 0.0831769
13378.7 0.138051
13379.9 0.188340
13381.2 0.271755
13382.4 0.424649
13383.0 0.554727
13383.6 0.748909
13384.2 1.06712
13384.8 1.60965
13385.4 2.65099
13386.0 4.69455
13386.5 7.54295
13387.0 9.39256
13387.5 7.48241
13388.0 4.69390
13388.4 3.36859
13388.7 2.49189
13389.3 1.47405
13390.0 0.955628
13390.7 0.664297
13391.3 0.484464
13392.0 0.369543
13393.3 0.234636
13394.6 0.161397
13396.0 0.117950
13398.6 0.0706851
13401.3 0.0470360
13403.9 0.0335498
13406.6 0.0251430
13409.2 0.0195702
13414.5 0.0128245
13419.8 0.00907592
13425.1 0.00677272
13430.4 0.00526233
13441.0 0.00346093
13451.6 0.00247205
13472.8 0.00148040
13557.5 0.000547228
13599.9 0.000473696
13642.2 0.000486623
13684.6 0.000609782
13705.8 0.000851624
13716.4 0.00153884
13721.7 0.00407030
13724.3 0.0139040
13725.6 0.0514279
13726.3 0.188793
13726.6 0.649840
13726.8 2.05294
13726.9 4.96032
13726.9 9.15722
13727.0 20.6864
13727.0 35.2781
13727.0 41.4155
13727.0 35.2781
13727.0 20.6864
13727.1 10.9466
13727.1 6.61364
13727.2 3.05278
13727.3 1.03242
13727.6 0.302204
13728.1 0.0822564
13729.1 0.0219636
13731.2 0.00622718
13735.3 0.00221192
13743.6 0.00126705
13760.2 0.00123277
13776.8 0.00153376
13793.4 0.00210563
13809.9 0.00323297
13818.2 0.00426752
13826.5 0.00602790
13843.1 0.0186755
13847.2 0.0307394
13849.3 0.0424322
13851.4 0.0633058
13852.4 0.0806848
13853.4 0.106564
13854.5 0.148561
13855.5 0.221767
13856.0 0.281876
13856.6 0.370761
13857.1 0.510140
13857.6 0.740687
13858.1 1.18365
13858.4 1.56975
13858.6 2.17680
13858.9 3.20451
13859.1 5.12296
13859.3 6.74608
13859.4 9.18029
13859.5 12.9376
13859.7 18.4781
13859.8 29.7529
13860.0 36.9913
13860.2 29.7518
13860.3 18.4775
13860.5 11.5995
13860.7 7.74380
13860.8 5.44470
13861.0 4.00365
13861.2 3.00607
13861.3 2.36665
13861.6 1.57081
13862.0 1.10508
13862.3 0.826045
13862.9 0.511890
13863.6 0.347031
13864.2 0.252711
13864.9 0.192228
13865.5 0.152323
13866.8 0.103251
13868.1 0.0762345
13870.7 0.0493596
13873.3 0.0376959
13875.9 0.0326508
13881.0 0.0325588
13886.2 0.0437079
13888.8 0.0560137
13890.1 0.0650988
13891.4 0.0771729
13892.7 0.0936973
13893.9 0.116570
13894.6 0.131603
13895.2 0.149542
13895.9 0.171873
13896.5 0.199160
13897.2 0.234044
13897.8 0.277945
13898.5 0.335926
13899.1 0.411515
13899.8 0.515100
13900.4 0.655011
13901.0 0.851993
13901.7 1.11877
13902.8 1.78937
13904.0 2.23668
13904.6 2.10480
13905.2 1.78875
13906.3 1.11792
13907.5 0.685651
13908.7 0.446423
13909.8 0.308499
13911.0 0.224162
13912.1 0.169585
13913.3 0.132512
13915.6 0.0871143
13917.9 0.0614869
13920.3 0.0457860
13924.9 0.0282811
13929.6 0.0192463
13934.2 0.0139980
13938.8 0.0106708
13943.5 0.00842739
13952.8 0.00567760
13962.1 0.00412149
13971.3 0.00315910
13980.6 0.00252969
13999.2 0.00182432
14017.8 0.00163133
14027.1 0.00183284
14036.3 0.00271994
14045.6 0.00802997
14050.3 0.0291397
14052.6 0.109993
14053.2 0.190059
14053.8 0.405562
14054.0 0.684984
14054.3 1.39451
14054.5 2.29145
14054.6 4.19814
14054.7 6.55266
14054.8 10.6121
14054.8 14.7502
14054.8 19.5037
14054.9 29.7203
14054.9 45.2701
14055.0 74.0557
14055.0 91.0300
14055.0 74.0553
14055.1 45.2699
14055.1 26.6090
14055.2 16.1361
14055.2 10.6122
14055.3 7.95534
14055.4 4.65307
14055.5 3.03404
14055.6 1.52605
14055.8 0.936015
14056.2 0.447226
14056.6 0.264427
14057.3 0.121709
14058.0 0.0703110
14061.0 0.0185538
14066.8 0.00516704
14078.6 0.00170039
14090.3 0.00100869
14102.1 0.000738866
14125.6 0.000506442
14149.0 0.000397884
14196.0 0.000290876
14243.0 0.000242854
14290.0 0.000229882
14337.0 0.000267552
14383.9 0.000551584
14407.4 0.00167274
14419.2 0.00604747
14425.0 0.0231327
14428.0 0.0890519
14428.7 0.155606
14429.4 0.334371
14429.8 0.572946
14430.2 1.16977
14430.4 1.95030
14430.5 3.70135
14430.6 5.59759
14430.7 9.34834
14430.8 13.2055
14430.8 18.1353
14430.9 28.6340
14430.9 46.0103
14431.0 71.5786
14431.0 91.6810
14431.1 71.5783
14431.1 46.0101
14431.2 25.9896
14431.2 15.3981
14431.3 9.97699
14431.3 7.33272
14431.4 4.03044
14431.6 2.62107
14431.8 1.32236
14432.0 0.793402
14432.5 0.376412
14432.9 0.218862
14434.8 0.0576760
14438.5 0.0150114
14445.8 0.00409374
14460.5 0.00158671
14475.2 0.00257880
14482.6 0.00845239
14486.3 0.0318913
14488.1 0.122241
14488.6 0.212307
14489.0 0.456707
14489.3 0.776750
14489.5 1.60071
14489.6 2.67258
14489.7 4.95326
14489.8 7.63003
14489.8 11.8312
14489.9 16.1167
14489.9 22.9052
14489.9 34.0653
14489.9 45.9245
14490.0 76.8685
14490.0 91.1912
14490.0 84.2168
14490.0 68.5002
14490.1 45.2683
14490.1 29.7009
14490.1 22.9052
14490.2 13.0589
14490.2 8.27511
14490.3 6.08163
14490.4 3.27693
14490.5 2.12486
14490.6 1.06322
14490.8 0.650784
14491.2 0.310370
14491.6 0.181016
14493.0 0.0480044
14496.0 0.0125412
14501.9 0.00340871
14513.8 0.00106064
14537.5 0.000459146
14561.2 0.000434923
14573.1 0.000769141
14579.0 0.00215719
14582.0 0.00765713
14583.5 0.0289499
14584.2 0.108908
14584.6 0.390897
14584.8 1.32817
14584.9 3.60339
14584.9 8.40193
14584.9 13.0290
14585.0 22.3302
14585.0 35.1564
14585.0 44.6313
14585.0 35.1564
14585.0 22.3303
14585.1 10.3760
14585.1 5.76826
14585.2 2.44602
14585.3 0.774282
14585.5 0.226314
14586.0 0.0614610
14587.1 0.0160583
14589.1 0.00432078
14593.1 0.00132058
14601.1 0.000572189
14617.2 0.000425736
14649.4 0.000634767
14681.6 0.00208836
14697.7 0.00790130
14701.8 0.0138700
14705.8 0.0306071
14707.8 0.0535252
14709.8 0.116780
14710.8 0.202110
14711.3 0.283852
14711.8 0.427328
14712.3 0.723005
14712.6 0.993965
14712.8 1.45007
14713.1 2.30529
14713.2 3.07974
14713.3 4.19178
14713.5 6.21096
14713.6 9.61861
14713.6 12.9630
14713.7 17.2608
14713.8 23.6857
14713.8 34.9275
14713.9 54.9143
14714.0 70.0207
14714.1 54.9135
14714.2 34.9270
14714.3 21.2448
14714.3 14.2143
14714.4 10.0159
14714.5 7.37795
14714.7 4.43347
14714.8 2.93769
14715.0 2.04235
14715.2 1.52514
14715.5 0.941412
14715.8 0.630737
14716.1 0.455879
14716.8 0.267806
14717.4 0.175956
14718.1 0.124369
14719.4 0.0715469
14722.0 0.0325627
14724.6 0.0185670
14729.8 0.00840504
14735.0 0.00480238
14755.8 0.00129255
14797.4 0.000405783
14880.6 0.000190081
14963.8 0.000176440
15005.4 0.000235080
15026.2 0.000461957
15036.6 0.00134942
15041.8 0.00484917
15044.4 0.0185304
15045.7 0.0708284
15046.3 0.261789
15046.6 0.874999
15046.8 2.50744
15046.9 5.69592
15046.9 9.88688
15046.9 21.2439
15047.0 32.6813
15047.0 42.3344
15047.0 32.6812
15047.1 21.2439
15047.1 13.6545
15047.1 8.51620
15047.2 4.50300
15047.3 1.82605
15047.5 0.601130
15047.9 0.173870
15048.7 0.0469348
15050.3 0.0122351
15053.5 0.00323827
15059.9 0.000951637
15072.8 0.000380676
15098.5 0.000261651
15124.2 0.000327800
15137.1 0.000632672
15143.5 0.00181668
15146.7 0.00646381
15148.4 0.0245028
15149.2 0.0914574
15149.6 0.323406
15149.8 1.02509
15149.9 2.69997
15149.9 5.51786
15149.9 9.61046
15150.0 16.7409
15150.0 27.8133
15150.0 33.4441
15150.0 27.8133
15150.0 16.7033
15150.1 7.88941
15150.1 4.03536
15150.2 1.57445
15150.4 0.502463
15150.7 0.146812
15151.3 0.0399185
15152.5 0.0104986
15155.0 0.00287672
15160.0 0.000939123
15170.0 0.000513416
15180.0 0.000752486
15185.0 0.00201394
15187.5 0.00699268
15188.7 0.0262166
15189.3 0.0961145
15189.6 0.329225
15189.8 1.03700
15189.9 2.69156
15189.9 5.36935
15190.0 13.1595
15190.0 26.3187
15190.0 13.1595
15190.1 4.43229
15190.1 2.32868
15190.2 0.862983
15190.4 0.267369
15190.8 0.0768228
15191.5 0.0208164
15192.9 0.00561271
15195.7 0.00164533
15201.3 0.000637515
15212.5 0.000391247
15235.0 0.000365379
15257.5 0.000464901
15268.7 0.000779369
15274.3 0.00195434
15277.2 0.00653436
15278.6 0.0240672
15279.3 0.0886367
15279.6 0.308193
15279.8 0.993261
15279.9 2.67120
15279.9 5.05998
15280.0 14.3143
15280.0 28.6284
15280.0 14.3144
15280.1 7.49876
15280.1 4.24108
15280.2 2.05417
15280.3 0.718352
15280.5 0.214862
15280.9 0.0604068
15281.8 0.0161230
15283.5 0.00446424
15287.0 0.00145531
15293.9 0.000711434
15307.8 0.000566898
15335.5 0.000651170
15363.2 0.000851927
15390.9 0.00120750
15418.7 0.00190054
15432.5 0.00252505
15446.4 0.00355107
15460.2 0.00543204
15467.2 0.00704262
15474.1 0.00957585
15481.0 0.0140123
15484.5 0.0177209
15488.0 0.0235165
15491.4 0.0339644
15493.2 0.0430951
15494.9 0.0582860
15496.6 0.0881944
15497.5 0.116350
15498.4 0.164937
15499.2 0.264754
15499.7 0.358598
15500.1 0.521123
15500.5 0.851988
15500.8 1.15866
15501.0 1.64353
15501.2 2.57692
15501.3 3.37419
15501.4 4.46417
15501.5 6.38116
15501.6 9.75625
15501.7 16.2516
15501.8 28.1728
15501.9 44.7834
15502.0 56.1648
15502.1 44.7835
15502.2 28.1739
15502.2 20.0234
15502.3 14.7108
15502.4 10.6348
15502.4 8.28974
15502.6 5.21862
15502.7 3.56430
15502.8 2.58430
15503.0 1.96006
15503.2 1.24341
15503.5 0.865228
15503.7 0.642549
15504.2 0.408774
15504.8 0.291967
15505.3 0.227793
15506.3 0.166990
15507.4 0.144201
15508.4 0.139128
15510.4 0.159210
15512.5 0.218623
15514.6 0.348164
15515.6 0.467451
15516.7 0.656139
15517.7 0.970148
15518.7 1.50105
15519.9 2.40475
15521.0 3.00125
15522.2 2.39451
15523.3 1.49817
15524.1 1.06689
15524.9 0.777678
15525.7 0.583828
15526.4 0.452308
15528.0 0.289773
15529.6 0.200518
15531.2 0.146299
15532.7 0.111496
15535.9 0.0708634
15539.0 0.0489677
15542.2 0.0358973
15548.5 0.0217603
15554.8 0.0146642
15561.1 0.0106200
15567.4 0.00809959
15573.6 0.00642859
15586.2 0.00443720
15598.8 0.00337225
15611.4 0.00277833
15624.0 0.00246860
15649.2 0.00246688
15674.3 0.00361482
15686.9 0.00538033
15699.5 0.0101751
15705.8 0.0164869
15709.0 0.0225813
15712.1 0.0333834
15715.3 0.0558613
15716.8 0.0776282
15718.4 0.116360
15720.0 0.196810
15720.8 0.274166
15721.5 0.407428
15722.3 0.675776
15722.7 0.919326
15723.1 1.32306
15723.5 2.08921
15723.7 2.74484
15723.9 3.69288
15724.1 5.31102
15724.3 7.99255
15724.5 13.3905
15724.6 17.9691
15724.7 24.0021
15724.8 38.2186
15725.0 47.9229
15725.2 38.2177
15725.3 23.9264
15725.5 13.7764
15725.7 8.58475
15725.9 5.64073
15726.1 4.02378
15726.2 2.95816
15726.4 2.29175
15726.8 1.48833
15727.2 1.03392
15727.5 0.766326
15728.2 0.468327
15729.0 0.318025
15729.7 0.232190
15731.2 0.143885
15732.6 0.102845
15734.1 0.0824201
15737.0 0.0703661
15739.9 0.0857761
15741.4 0.108824
15742.9 0.153914
15744.3 0.250833
15745.0 0.344976
15745.8 0.510002
15746.5 0.838044
15746.9 1.14391
15747.2 1.63723
15747.6 2.56748
15747.8 3.33114
15748.0 4.48349
15748.2 6.45878
15748.3 9.72823
15748.5 15.8610
15748.6 20.9238
15748.7 28.9253
15748.9 46.3062
15749.0 57.7779
15749.2 46.3048
15749.3 28.9241
15749.4 20.9228
15749.5 15.8601
15749.7 9.72735
15749.9 6.45774
15750.0 4.56262
15750.2 3.38151
15750.4 2.60095
15750.8 1.67120
15751.1 1.16218
15751.5 0.854511
15752.2 0.517881
15752.9 0.347715
15753.6 0.249982
15755.1 0.147778
15756.5 0.0978836
15758.0 0.0701181
15760.8 0.0415514
15763.7 0.0277742
15766.6 0.0200804
15772.4 0.0121132
15783.9 0.00603684
15795.5 0.00372844
15818.5 0.00193450
15841.6 0.00124761
15887.8 0.000754294
15910.9 0.000810618
15922.4 0.00146744
15928.2 0.00421212
15931.1 0.0150386
15932.5 0.0562698
15933.2 0.205972
15933.6 0.700410
15933.8 2.06970
15933.9 4.90404
15933.9 9.57417
15933.9 20.0703
15934.0 31.2203
15934.0 40.2123
15934.0 31.2203
15934.1 20.0703
15934.1 9.57420
15934.2 4.90407
15934.3 1.91522
15934.4 0.639229
15934.8 0.186510
15935.6 0.0501395
15937.1 0.0133153
15940.2 0.00375439
15946.3 0.00129773
15958.6 0.000658614
15983.2 0.000479877
16007.8 0.000452891
16032.4 0.000480199
16056.9 0.000585797
16069.2 0.000702890
16081.5 0.000922586
16093.8 0.00139812
16099.9 0.00187291
16106.1 0.00273924
16109.1 0.00347236
16112.2 0.00458968
16115.3 0.00642243
16118.4 0.00974358
16121.4 0.0167419
16123.0 0.0236205
16124.5 0.0358198
16126.0 0.0610892
16127.6 0.126433
16128.3 0.208153
16129.1 0.403647
16129.5 0.626129
16129.7 0.805771
16129.9 1.07213
16130.1 1.48773
16130.2 1.80431
16130.3 2.17672
16130.4 2.72752
16130.4 3.39598
16130.5 4.40787
16130.6 5.78041
16130.8 9.25093
16131.0 11.5443
16131.1 10.8704
16131.2 9.25067
16131.4 5.76420
16131.5 3.96308
16131.6 2.79247
16131.8 2.04143
16131.9 1.57372
16132.2 0.975599
16132.5 0.667143
16132.7 0.477967
16133.0 0.362014
16133.6 0.226008
16134.1 0.154215
16134.7 0.111854
16135.2 0.0848182
16135.8 0.0668057
16136.9 0.0442455
16138.0 0.0314821
16139.1 0.0235697
16140.1 0.0183692
16142.3 0.0120628
16144.5 0.00858265
16146.7 0.00644564
16148.9 0.00505216
16153.3 0.00339570
16157.7 0.00249167
16166.5 0.00159867
16175.3 0.00120190
16184.0 0.00100939
16201.6 0.000908814
16219.2 0.00108353
16236.7 0.00182030
16254.3 0.00600267
16258.7 0.0103093
16263.0 0.0224280
16265.2 0.0391113
16267.4 0.0850703
16268.5 0.147112
16269.1 0.207361
16269.6 0.311322
16270.2 0.524154
16270.5 0.727589
16270.7 1.05980
16271.0 1.71375
16271.1 2.29029
16271.3 3.12484
16271.4 4.63489
16271.5 7.20781
16271.6 9.50878
16271.7 12.9664
16271.8 18.3121
16271.8 25.8706
16271.9 41.8191
16272.0 51.7008
16272.1 41.8185
16272.2 25.8701
16272.3 18.3119
16272.3 13.5928
16272.4 9.91855
16272.4 7.77718
16272.6 4.93433
16272.7 3.38060
16272.8 2.45092
16273.0 1.85436
16273.2 1.18312
16273.5 0.807691
16273.7 0.585807
16274.2 0.351178
16274.8 0.231981
16275.3 0.165583
16276.3 0.0960435
16278.4 0.0441475
16280.4 0.0253557
16284.5 0.0116371
16288.7 0.00675421
16296.9 0.00323086
16305.1 0.00199125
16338.1 0.000823009
16354.6 0.000710036
16371.1 0.000674855
16404.0 0.000735956
16437.0 0.000980351
16453.4 0.00123282
16469.9 0.00168342
16486.4 0.00261230
16494.6 0.00350966
16502.9 0.00510525
16507.0 0.00642313
16511.1 0.00840350
16515.2 0.0115873
16519.4 0.0172085
16523.5 0.0286129
16527.6 0.0577006
16529.7 0.0930064
16530.7 0.124314
16531.7 0.174449
16532.2 0.211983
16532.7 0.261650
16533.3 0.332067
16533.8 0.431465
16534.3 0.583460
16534.8 0.817145
16535.3 1.19757
16535.8 1.82497
16536.4 2.91538
16537.0 3.64066
16537.3 3.42052
16537.6 2.91517
16538.2 1.82483
16538.7 1.16028
16539.3 0.778246
16539.8 0.549035
16540.4 0.404775
16541.4 0.242694
16542.5 0.161421
16543.6 0.114692
16544.7 0.0859983
16546.9 0.0537676
16549.0 0.0372852
16551.2 0.0279005
16555.5 0.0187981
16559.9 0.0162909
16562.0 0.0172202
16564.2 0.0205810
16566.4 0.0294320
16568.5 0.0560983
16569.6 0.0933835
16570.7 0.195033
16571.3 0.329276
16571.8 0.678903
16572.1 1.11323
16572.2 1.52419
16572.3 2.14748
16572.5 3.35630
16572.6 5.64725
16572.7 7.93990
16572.7 11.8200
16572.8 18.8476
16572.9 29.5639
16572.9 48.7787
16573.0 59.1927
16573.1 45.8643
16573.1 29.5636
16573.2 18.8474
16573.3 12.5792
16573.3 8.83897
16573.4 6.49483
16573.5 3.88829
16573.6 2.65270
16573.7 1.86906
16573.8 1.41864
16574.1 0.879652
16574.3 0.598253
16574.5 0.433345
16575.0 0.257920
16575.9 0.122728
16576.8 0.0724674
16578.7 0.0350336
16580.5 0.0214105
16584.2 0.0112937
16587.9 0.00755308
16595.2 0.00468110
16602.6 0.00359208
16617.3 0.00284098
16632.0 0.00278022
16646.8 0.00311091
16661.5 0.00390158
16668.9 0.00461605
16676.2 0.00589571
16683.6 0.0100509
16687.3 0.0233396
16689.1 0.0725974
16690.0 0.254169
16690.5 0.878296
16690.6 1.46813
16690.7 2.73989
16690.8 4.26233
16690.8 7.45308
16690.9 15.6787
16690.9 25.0738
16690.9 38.1773
16691.0 59.4718
16691.0 76.6912
16691.0 59.4717
16691.1 38.1773
16691.1 25.0739
16691.1 15.6788
16691.2 7.45320
16691.3 2.93117
16691.4 1.54270
16691.5 0.948763
16691.9 0.276001
16692.8 0.0785087
16694.6 0.0261068
16698.2 0.0134287
16705.3 0.0125365
16712.4 0.0158945
16715.9 0.0186387
16719.5 0.0223305
16723.1 0.0273914
16724.8 0.0306292
16726.6 0.0344715
16728.4 0.0391278
16730.2 0.0448045
16731.9 0.0518141
16733.7 0.0605419
16735.5 0.0717204
16737.3 0.0862545
16739.1 0.105620
16740.8 0.132089
16742.6 0.170524
16744.4 0.232310
16745.3 0.284031
16746.2 0.381147
16746.6 0.486761
16747.1 0.734454
16747.3 1.03840
16747.5 1.78968
16747.6 2.68067
16747.7 4.68470
16747.8 7.03110
16747.8 10.7072
16747.9 20.3698
16747.9 30.0716
16747.9 39.7760
16748.0 66.9644
16748.0 79.1999
16748.0 73.2508
16748.0 59.7954
16748.1 39.7843
16748.1 26.2937
16748.1 20.3842
16748.2 11.8006
16748.3 5.70546
16748.4 3.25559
16748.5 2.25179
16748.6 1.33357
16748.8 0.984009
16749.2 0.711211
16749.6 0.624605
16751.0 0.621209
16754.0 0.729877
16755.5 0.683944
16757.0 0.580887
16760.0 0.363662
16762.6 0.240094
16765.1 0.164652
16767.7 0.118041
16770.2 0.0880690
16775.4 0.0539373
16780.5 0.0364081
16785.6 0.0265262
16790.7 0.0211803
16793.3 0.0203511
16795.8 0.0227126
16798.4 0.0438446
16799.7 0.130072
16800.3 0.446888
16800.6 1.50199
16800.7 2.40712
16800.8 4.44940
16800.9 10.5734
16800.9 19.0930
16800.9 37.0635
16801.0 56.1340
16801.0 74.1155
16801.0 56.1339
16801.1 37.0635
16801.1 22.6154
16801.1 16.2626
16801.2 8.23640
16801.2 3.45757
16801.4 1.17323
16801.8 0.352101
16802.5 0.103603
16803.9 0.0346581
16806.8 0.0156350
16809.7 0.0113092
16812.6 0.00931224
16818.4 0.00715648
16824.1 0.00586362
16835.6 0.00424987
16847.2 0.00325864
16870.2 0.00211598
16893.3 0.00149956
16916.3 0.00112820
16939.4 0.000887925
16985.5 0.000610093
17031.6 0.000474199
17077.7 0.000439441
17100.7 0.000488925
17123.8 0.000697216
17146.8 0.00193601
17158.4 0.00691641
17164.1 0.0264243
17167.0 0.101059
17167.7 0.174986
17168.5 0.374034
17168.8 0.632189
17169.2 1.28769
17169.4 2.07672
17169.5 3.87271
17169.6 5.76460
17169.7 9.37455
17169.8 12.9342
17169.8 17.2962
17169.9 26.0220
17169.9 37.1646
17170.0 61.4556
17170.0 74.0614
17170.1 57.1734
17170.1 37.1644
17170.2 21.9687
17170.2 13.8682
17170.3 9.37463
17170.4 6.70197
17170.5 3.87279
17170.6 2.58968
17170.8 1.35093
17171.0 0.825497
17171.5 0.399263
17172.0 0.234469
17172.9 0.108910
17173.8 0.0626986
17177.5 0.0163660
17184.9 0.00432412
17199.6 0.00125517
17229.1 0.000472942
17288.0 0.000283318
17317.5 0.000284924
17346.9 0.000349812
17361.7 0.000452626
17369.0 0.000556894
17376.4 0.000747971
17383.8 0.00115857
17387.5 0.00156834
17391.1 0.00231774
17394.8 0.00392825
17396.7 0.00553057
17398.5 0.00845111
17400.3 0.0146624
17402.2 0.0318910
17403.1 0.0551112
17404.0 0.117652
17404.5 0.198804
17404.9 0.405043
17405.4 1.22054
17405.5 1.85454
17405.6 2.96633
17405.7 4.01733
17405.8 5.67255
17405.8 8.38815
17405.9 12.1443
17405.9 19.3179
17406.0 24.2882
17406.0 22.4057
17406.1 19.3177
17406.1 12.1441
17406.2 8.99128
17406.2 6.42933
17406.3 3.80885
17406.4 2.36681
17406.5 1.65720
17406.6 1.18274
17406.7 0.908858
17406.9 0.583171
17407.1 0.397612
17407.3 0.288116
17407.6 0.173078
17408.0 0.114179
17408.4 0.0816140
17409.1 0.0476555
17409.9 0.0310781
17410.6 0.0218859
17412.1 0.0126204
17413.6 0.00822292
17415.1 0.00582453
17418.1 0.00341272
17421.1 0.00228323
17424.1 0.00166973
17430.0 0.00105918
17436.0 0.000779800
17442.0 0.000632838
17453.9 0.000499937
17477.8 0.000458534
17501.7 0.000549587
17525.6 0.000808139
17537.5 0.00107485
17549.5 0.00156053
17555.4 0.00196834
17561.4 0.00258701
17567.4 0.00359497
17573.4 0.00540826
17576.3 0.00692121
17579.3 0.00920018
17582.3 0.0128991
17585.3 0.0194513
17586.8 0.0248733
17588.3 0.0329037
17589.8 0.0456215
17591.3 0.0675200
17592.8 0.110473
17593.5 0.149140
17594.3 0.210967
17595.0 0.321981
17595.4 0.411099
17595.7 0.541318
17595.9 0.632452
17596.1 0.747247
17596.3 0.893929
17596.5 1.07280
17596.7 1.31927
17596.9 1.62718
17597.1 2.05800
17597.2 2.59342
17597.6 4.16238
17598.0 5.16930
17598.2 4.84453
17598.4 4.11938
17598.8 2.59323
17599.1 1.62705
17599.5 1.08406
17599.9 0.760987
17600.2 0.558860
17600.9 0.334435
17601.7 0.221095
17602.4 0.156609
17603.1 0.116630
17604.5 0.0718716
17606.0 0.0487862
17607.4 0.0353818
17608.9 0.0269363
17610.3 0.0212908
17613.2 0.0144982
17616.1 0.0108012
17618.9 0.00867516
17621.8 0.00748308
17627.6 0.00705924
17633.4 0.0102064
17636.2 0.0156618
17639.1 0.0316956
17640.6 0.0539127
17642.0 0.115436
17642.7 0.197877
17643.4 0.417643
17643.8 0.698973
17644.2 1.39953
17644.3 2.22277
17644.5 4.03586
17644.6 5.87508
17644.7 9.23217
17644.7 12.3903
17644.8 16.1012
17644.8 23.1405
17644.9 32.9466
17644.9 53.4740
17645.0 65.7354
17645.1 53.4736
17645.1 32.9464
17645.2 19.9241
17645.3 12.3903
17645.3 8.28394
17645.4 6.15164
17645.5 3.60862
17645.7 2.35658
17645.9 1.22453
17646.2 0.746825
17646.7 0.360814
17647.2 0.212051
17648.3 0.0983391
17649.3 0.0570942
17651.4 0.0265029
17653.5 0.0155080
17661.8 0.00456903
17670.2 0.00240587
17678.5 0.00161466
17695.2 0.00122953
17703.6 0.00213721
17707.8 0.00627217
17709.9 0.0225542
17710.9 0.0834436
17711.4 0.296716
17711.7 0.955054
17711.8 2.57985
17711.9 5.82519
17711.9 9.17749
17711.9 17.6638
17712.0 35.2941
17712.1 17.6307
17712.1 9.17750
17712.1 5.82521
17712.2 2.85063
17712.3 1.01583
17712.6 0.318047
17713.1 0.0897782
17714.1 0.0240187
17716.1 0.00660491
17720.1 0.00206462
17728.2 0.000867660
17744.3 0.000507255
17760.4 0.000412203
17776.5 0.000371963
17808.7 0.000359749
17840.9 0.000417749
17873.1 0.000592560
17905.3 0.00112736
17921.4 0.00187975
17937.5 0.00400969
17945.5 0.00695765
17953.6 0.0152451
17957.6 0.0266412
17961.6 0.0581536
17963.7 0.100868
17964.7 0.142495
17965.7 0.215437
17966.7 0.365019
17967.2 0.504185
17967.7 0.740637
17968.2 1.20321
17968.4 1.60398
17968.7 2.23920
17968.9 3.32746
17969.2 5.39723
17969.3 7.27130
17969.4 9.91642
17969.6 14.4689
17969.7 21.2456
17969.9 34.3926
17970.0 42.5003
17970.2 34.3917
17970.3 21.2451
17970.4 14.4687
17970.6 10.1930
17970.7 7.45165
17970.8 5.63734
17971.0 3.50798
17971.3 2.37458
17971.5 1.70773
17971.8 1.28469
17972.2 0.800559
17972.7 0.545482
17973.2 0.395159
17974.2 0.234484
17975.1 0.154437
17976.1 0.109713
17978.0 0.0635585
17979.9 0.0413789
17981.9 0.0291585
17985.7 0.0167662
17993.4 0.00779814
18001.1 0.00472352
18016.5 0.00354399
18024.2 0.00751100
18028.1 0.0246321
18030.0 0.0891918
18030.5 0.151731
18030.9 0.315256
18031.2 0.519506
18031.4 1.00985
18031.5 1.56047
18031.7 2.70037
18031.7 3.77779
18031.8 5.59056
18031.8 8.86243
18031.9 15.0142
18032.0 24.8860
18032.0 30.0276
18032.1 23.1423
18032.1 15.0141
18032.2 10.5015
18032.2 7.53872
18032.3 4.27542
18032.4 2.70038
18032.4 1.92857
18032.6 1.07927
18032.7 0.686044
18033.0 0.339785
18033.3 0.205175
18033.9 0.0973868
18034.6 0.0569135
18037.0 0.0157187
18041.9 0.00470591
18051.6 0.00174311
18071.1 0.000850221
18110.0 0.000610283
18148.9 0.00112209
18168.4 0.00344357
18178.1 0.0125546
18183.0 0.0478348
18184.2 0.0833684
18185.4 0.179653
18186.0 0.308024
18186.7 0.645644
18187.0 1.08069
18187.3 2.10193
18187.4 3.24935
18187.6 5.62957
18187.6 8.08220
18187.7 11.7090
18187.8 19.3378
18187.8 25.7011
18187.9 34.4582
18187.9 53.4964
18188.0 68.6556
18188.1 53.4960
18188.1 34.1969
18188.2 23.8908
18188.2 18.0720
18188.3 13.1630
18188.3 10.4699
18188.4 6.69650
18188.5 4.79332
18188.7 2.69980
18188.8 1.72172
18189.2 0.871490
18189.5 0.524032
18190.2 0.247066
18190.9 0.144255
18192.2 0.0664065
18193.6 0.0381412
18199.1 0.0101298
18210.0 0.00307562
18221.0 0.00235296
18226.5 0.00427596
18229.2 0.0126111
18230.6 0.0447673
18231.3 0.160721
18231.6 0.540623
18231.8 1.58077
18231.9 3.94669
18231.9 6.94541
18231.9 16.6686
18232.0 33.3425
18232.1 16.6686
18232.1 6.94543
18232.1 3.94671
18232.2 1.72006
18232.4 0.568163
18232.7 0.169649
18233.4 0.0466415
18234.7 0.0130698
18237.4 0.00431612
18242.8 0.00218307
18253.5 0.00239725
18264.2 0.00688500
18269.6 0.0249785
18272.2 0.0946106
18273.6 0.351835
18273.9 0.602942
18274.2 1.22862
18274.4 2.01547
18274.6 3.70212
18274.7 5.74360
18274.7 9.29365
18274.8 16.9995
18274.9 24.3381
18274.9 35.9910
18275.0 57.4995
18275.0 71.8029
18275.1 57.4994
18275.1 35.9910
18275.2 22.1698
18275.2 15.6367
18275.3 8.15903
18275.4 4.91125
18275.5 3.39570
18275.6 1.83011
18275.8 1.13862
18276.1 0.561422
18276.5 0.333103
18277.8 0.0900680
18280.6 0.0238898
18286.1 0.00665517
18297.0 0.00237490
18318.9 0.00198384
18340.9 0.00578224
18346.3 0.00986320
18351.8 0.0213792
18354.6 0.0371821
18357.3 0.0808929
18358.7 0.139568
18359.4 0.196921
18360.0 0.296577
18360.7 0.500730
18361.1 0.688614
18361.4 1.00509
18361.7 1.59897
18361.9 2.11168
18362.1 2.90981
18362.3 4.24203
18362.4 6.67665
18362.5 8.83688
18362.6 11.6568
18362.7 16.4456
18362.8 22.8454
18362.9 36.5672
18363.0 45.7208
18363.1 36.5665
18363.2 22.8449
18363.4 13.5273
18363.5 8.83689
18363.6 5.95155
18363.7 4.34655
18363.9 3.22964
18364.0 2.53501
18364.2 1.67509
18364.5 1.17036
18364.7 0.862570
18365.2 0.527881
18365.7 0.353135
18366.2 0.254216
18367.2 0.149709
18368.2 0.0981980
18369.2 0.0695960
18371.1 0.0401465
18375.1 0.0184396
18379.0 0.0106586
18386.9 0.00502880
18394.8 0.00305944
18410.5 0.00173180
18426.3 0.00145224
18442.1 0.00172345
18457.8 0.00304095
18465.7 0.00498748
18469.6 0.00693472
18473.6 0.0104606
18477.5 0.0178390
18479.5 0.0249899
18481.5 0.0376023
18482.4 0.0479339
18483.4 0.0630288
18484.4 0.0868819
18485.4 0.126778
18486.4 0.202836
18486.9 0.268233
18487.4 0.370367
18487.9 0.546291
18488.4 0.866072
18488.6 1.14017
18488.8 1.53051
18489.1 2.15077
18489.3 3.05932
18489.7 4.92464
18490.0 6.11963
18490.3 4.86585
18490.7 3.05910
18490.9 2.24507
18491.1 1.70024
18491.5 1.04064
18491.9 0.683128
18492.3 0.482568
18492.7 0.355059
18493.1 0.273225
18493.9 0.174731
18494.7 0.121063
18495.5 0.0887345
18497.2 0.0534831
18498.8 0.0357287
18500.4 0.0255613
18503.6 0.0149891
18506.9 0.00985985
18510.1 0.00699757
18516.6 0.00408348
18529.5 0.00193393
18542.5 0.00115799
18568.4 0.000584187
18594.2 0.000373459
18646.0 0.000214062
18697.8 0.000155866
18801.4 0.000132910
18853.2 0.000200554
18879.1 0.000476250
18892.0 0.00155700
18898.5 0.00581657
18901.7 0.0225478
18903.3 0.0870720
18904.1 0.326851
18904.5 1.12882
18904.7 3.41447
18904.8 8.34063
18904.9 15.5535
18904.9 24.4991
18904.9 34.6105
18905.0 55.0497
18905.0 69.1629
18905.0 55.0496
18905.1 34.5521
18905.1 20.9120
18905.1 11.8958
18905.2 5.58034
18905.3 2.03856
18905.6 0.606507
18906.2 0.168332
18907.4 0.0440688
18909.6 0.0114075
18914.2 0.00298458
18923.4 0.000858799
18941.8 0.000345127
18978.5 0.000321909
19015.2 0.000892809
19033.5 0.00323338
19042.7 0.0124572
19047.3 0.0482354
19049.6 0.182061
19050.2 0.314236
19050.7 0.656143
19051.0 1.09465
19051.3 2.11260
19051.5 3.35701
19051.6 5.81036
19051.7 8.13183
19051.7 12.0465
19051.8 19.1491
19051.9 33.7328
19051.9 55.0784
19052.0 67.6278
19052.1 55.0781
19052.1 33.7326
19052.2 20.5880
19052.3 12.8120
19052.3 8.56881
19052.4 6.36413
19052.5 3.60147
19052.7 2.36725
19052.9 1.21339
19053.2 0.734101
19053.7 0.351218
19054.3 0.205047
19055.4 0.0946338
19056.4 0.0545220
19060.7 0.0141357
19069.3 0.00368030
19086.5 0.00103525
19120.9 0.000448040
19155.4 0.000756851
19172.6 0.00234190
19176.9 0.00394636
19181.2 0.00840045
19183.3 0.0144373
19185.5 0.0308963
19186.5 0.0527737
19187.6 0.109353
19188.1 0.180600
19188.4 0.245482
19188.7 0.352366
19189.0 0.546226
19189.1 0.715003
19189.2 0.950127
19189.4 1.35276
19189.5 1.98569
19189.6 3.11314
19189.8 5.33540
19189.9 8.60117
19190.0 10.6884
19190.1 8.60099
19190.2 5.33529
19190.4 3.23208
19190.5 2.11831
19190.6 1.42959
19190.7 1.04531
19190.9 0.777389
19191.0 0.610558
19191.2 0.397571
19191.5 0.278673
19191.7 0.205902
19192.2 0.126497
19193.2 0.0613140
19194.2 0.0361854
19196.2 0.0171133
19198.2 0.0101610
19202.1 0.00521946
19206.1 0.00380873
19214.0 0.00618371
19218.0 0.0205030
19220.0 0.0764767
19220.9 0.282954
19221.4 1.00124
19221.6 1.68066
19221.7 3.16172
19221.8 7.81894
19221.9 14.7931
19221.9 21.7725
19221.9 34.4290
19222.0 57.6391
19222.0 68.8577
19222.0 57.6389
19222.1 34.4289
19222.1 19.0387
19222.2 10.5351
19222.3 4.74403
19222.4 2.50528
19222.4 1.60692
19222.8 0.482571
19223.6 0.131244
19225.1 0.0345971
19228.1 0.00922810
19234.0 0.00261685
19246.0 0.000841240
19269.9 0.000318198
19317.8 0.000148911
19413.5 0.000104369
19509.2 0.000164424
19557.0 0.000439778
19581.0 0.00152928
19592.9 0.00582736
19598.9 0.0226166
19601.9 0.0867000
19603.4 0.322148
19603.8 0.549987
19604.1 1.11528
19604.3 1.81768
19604.5 3.31919
19604.6 5.09202
19604.7 8.17232
19604.8 14.7815
19604.8 21.9296
19604.9 33.2912
19604.9 51.6079
19605.0 66.2877
19605.1 51.6077
19605.1 32.9965
19605.2 23.8633
19605.2 17.2069
19605.3 9.80579
19605.4 6.20727
19605.4 4.24668
19605.6 2.32560
19605.7 1.49752
19606.1 0.752402
19606.4 0.450590
19607.6 0.123962
19610.1 0.0325807
19615.0 0.00840884
19625.0 0.00219268
19644.8 0.000624894
19684.5 0.000253598
19724.2 0.000253734
19744.1 0.000413814
19754.0 0.000988369
19759.0 0.00318904
19761.5 0.0117396
19762.7 0.0443384
19763.3 0.162971
19763.6 0.556339
19763.8 1.72975
19763.9 4.35574
19763.9 8.28839
19764.0 14.9250
19764.0 29.8497
19764.0 14.9249
19764.1 6.95416
19764.1 3.79333
19764.2 1.44413
19764.4 0.452298
19764.8 0.126884
19765.5 0.0337761
19766.9 0.00896303
19769.8 0.00250427
19775.5 0.000890188
19787.0 0.000563518
19809.9 0.000882538
19832.9 0.00315067
19844.4 0.0121418
19847.2 0.0213096
19850.1 0.0469116
19851.5 0.0818945
19853.0 0.176672
19853.7 0.302611
19854.4 0.624663
19854.8 1.02870
19855.1 1.99367
19855.3 3.07041
19855.5 5.28081
19855.6 7.35057
19855.7 10.7971
19855.7 16.9247
19855.8 28.0457
19855.9 43.9684
19856.0 56.1912
19856.1 43.9679
19856.2 28.0454
19856.3 17.8666
19856.3 12.4470
19856.4 9.03377
19856.5 6.80104
19856.6 4.20746
19856.7 2.83891
19857.0 1.53090
19857.3 0.952465
19857.9 0.469391
19858.4 0.278275
19859.6 0.129705
19860.7 0.0750598
19862.9 0.0342543
19865.2 0.0195894
19874.2 0.00504955
19892.1 0.00133138
19928.1 0.000390679
20000.0 0.000158117
20143.0 0.000128988
20214.5 0.000173599
20250.2 0.000275799
20268.1 0.000567202
20277.0 0.00159850
20281.5 0.00556099
20283.7 0.0208343
20284.8 0.0788253
20285.4 0.287280
20285.7 0.960074
20285.8 2.73057
20285.9 6.06579
20285.9 16.0151
20286.0 32.0301
20286.1 16.0151
20286.1 8.06283
20286.1 4.69233
20286.2 1.91536
20286.4 0.628721
20286.8 0.185789
20287.5 0.0507990
20288.9 0.0135095
20291.7 0.00373234
20297.3 0.00129293
20308.5 0.00100031
20319.7 0.00267406
20325.3 0.00966967
20328.1 0.0367847
20329.5 0.138299
20330.2 0.494283
20330.6 1.59599
20330.8 4.48954
20330.8 9.90288
20330.9 15.6195
20330.9 30.1762
20331.0 45.9060
20331.0 56.1050
20331.0 60.5923
20331.0 56.1050
20331.0 45.9060
20331.1 30.1762
20331.1 15.6196
20331.2 9.90292
20331.2 4.84097
20331.4 1.75089
20331.8 0.534256
20332.4 0.150187
20333.8 0.0400263
20336.4 0.0105081
20341.8 0.00286869
20352.5 0.000934810
20374.0 0.000491010
20416.9 0.000607030
20459.8 0.00179825
20470.5 0.00301155
20481.3 0.00641079
20486.6 0.0110898
20492.0 0.0241261
20494.7 0.0418660
20497.4 0.0904345
20498.7 0.154834
20499.4 0.216529
20500.0 0.324026
20500.7 0.536711
20501.0 0.734672
20501.4 1.05225
20501.7 1.65027
20501.9 2.15604
20502.0 2.87082
20502.2 4.08011
20502.4 6.17662
20502.6 10.1249
20502.7 17.5837
20502.9 28.3428
20503.0 35.1132
20503.1 28.3422
20503.3 17.5834
20503.4 11.5170
20503.5 7.93785
20503.7 5.56578
20503.8 4.17296
20504.0 2.52109
20504.3 1.70022
20504.5 1.20471
20504.8 0.896646
20505.3 0.555689
20505.8 0.374737
20506.3 0.271234
20507.2 0.160132
20508.2 0.105645
20509.2 0.0749721
20511.2 0.0435272
20515.2 0.0204110
20519.1 0.0124057
20527.0 0.00931866
20531.0 0.0198077
20533.0 0.0648637
20534.0 0.234212
20534.4 0.807654
20534.7 2.55600
20534.8 6.37859
20534.9 12.2442
20534.9 18.2906
20534.9 32.1849
20535.0 52.4697
20535.0 64.3670
20535.0 52.4696
20535.1 32.1848
20535.1 18.2906
20535.1 10.8418
20535.2 5.31751
20535.4 2.02302
20535.6 0.620740
20536.2 0.176966
20537.4 0.0490127
20539.6 0.0143622
20544.2 0.00506870
20553.4 0.00229556
20571.7 0.00130398
20608.3 0.00124569
20626.6 0.00172196
20644.9 0.00318081
20654.1 0.00518669
20663.2 0.0107278
20667.8 0.0182435
20670.1 0.0256167
20672.4 0.0388375
20674.7 0.0662604
20675.8 0.0928048
20677.0 0.138912
20677.6 0.176932
20678.1 0.231867
20678.7 0.316989
20679.3 0.459004
20679.8 0.721655
20680.1 0.949802
20680.4 1.28740
20680.7 1.85949
20681.0 2.83711
20681.3 4.81583
20681.4 6.45570
20681.6 9.00489
20681.8 14.4200
20682.0 18.0079
20682.2 14.4195
20682.4 9.00457
20682.7 5.33250
20682.9 3.42594
20683.2 2.30981
20683.4 1.66978
20683.6 1.24361
20683.9 0.969481
20684.3 0.634478
20684.8 0.443289
20685.2 0.328820
20686.2 0.200478
20687.1 0.134984
20688.0 0.0971757
20689.9 0.0575314
20691.8 0.0383017
20693.6 0.0275791
20697.3 0.0167602
20701.1 0.0118184
20704.8 0.00932226
20712.2 0.00767836
20719.7 0.00899242
20723.4 0.0111832
20727.1 0.0155091
20730.8 0.0247544
20732.7 0.0336308
20734.5 0.0489610
20736.4 0.0787015
20737.3 0.105243
20738.3 0.147989
20739.2 0.222913
20740.1 0.370550
20740.6 0.504540
20741.1 0.712806
20741.5 1.06745
20742.0 1.65563
20742.5 2.64529
20743.0 3.30366
20743.5 2.64502
20744.0 1.65541
20744.4 1.18171
20744.7 0.870168
20745.1 0.653307
20745.4 0.507952
20746.1 0.326670
20746.8 0.227103
20747.5 0.165771
20748.2 0.126128
20749.5 0.0801688
20750.9 0.0553039
20752.3 0.0405747
20755.0 0.0245677
20757.8 0.0165546
20760.5 0.0119759
20766.0 0.00720150
20771.5 0.00488223
20777.0 0.00357678
20788.0 0.00222814
20810.0 0.00120770
20832.0 0.000833921
20876.0 0.000606819
20898.0 0.000711815
20909.0 0.00128220
20914.5 0.00357312
20917.2 0.0125865
20918.6 0.0470982
20919.3 0.176319
20919.6 0.610886
20919.8 1.86781
20919.9 4.98691
20919.9 9.34963
20920.0 24.0397
20920.0 39.8784
20920.0 48.0248
20920.0 39.8783
20920.0 23.9855
20920.1 11.2512
20920.1 5.74901
20920.2 2.24166
20920.4 0.715288
20920.7 0.209081
20921.3 0.0569536
20922.5 0.0150832
20925.0 0.00421472
20930.0 0.00145116
20940.0 0.000762393
20960.0 0.000628885
21000.0 0.000798867
21019.9 0.00105843
21039.9 0.00170035
21059.9 0.00450787
21069.9 0.0140619
21074.9 0.0488466
21076.1 0.0833404
21077.4 0.177550
21078.0 0.303948
21078.6 0.631068
21078.9 1.04017
21079.2 2.02449
21079.4 3.18266
21079.6 5.43667
21079.6 7.71381
21079.7 11.6392
21079.8 18.9454
21079.9 30.7839
21079.9 49.2521
21080.0 61.5643
21080.1 49.2519
21080.1 30.7838
21080.2 17.7478
21080.3 11.6395
21080.4 8.09137
21080.4 5.90463
21080.6 3.39390
21080.7 2.24745
21081.0 1.16541
21081.3 0.721672
21081.9 0.348475
21082.4 0.207682
21084.7 0.0610609
21087.0 0.0345336
21089.3 0.0290252
21091.6 0.0343942
21092.8 0.0427528
21093.9 0.0588607
21095.1 0.0922745
21095.7 0.123739
21096.2 0.175402
21096.8 0.272455
21097.1 0.354987
21097.4 0.475926
21097.7 0.677951
21098.0 1.01591
21098.2 1.67766
21098.4 2.20856
21098.5 2.99244
21098.8 4.76265
21099.0 5.98385
21099.2 4.76230
21099.5 2.99200
21099.7 2.03708
21099.8 1.44681
21100.0 1.04793
21100.2 0.798595
21100.6 0.496994
21101.0 0.336946
21101.3 0.242964
21101.7 0.183417
21102.4 0.115322
21103.2 0.0794445
21103.9 0.0582802
21105.4 0.0355986
21106.9 0.0243230
21108.4 0.0178986
21111.3 0.0112232
21117.2 0.00615629
21123.1 0.00433334
21135.0 0.00320035
21146.8 0.00328009
21158.6 0.00432709
21164.5 0.00551659
21170.5 0.00771733
21176.4 0.0123688
21179.3 0.0168959
21182.3 0.0248794
21183.8 0.0314249
21185.2 0.0411311
21186.7 0.0564086
21188.2 0.0822424
21189.7 0.131909
21190.4 0.175669
21191.2 0.245254
21191.9 0.365018
21192.6 0.594375
21193.0 0.793661
21193.4 1.10053
21193.7 1.59065
21194.1 2.35336
21194.6 3.76421
21195.0 4.70452
21195.5 3.76394
21195.9 2.35320
21196.3 1.54147
21196.7 1.05048
21197.1 0.749427
21197.5 0.560905
21198.2 0.342494
21199.0 0.229404
21199.8 0.163378
21200.5 0.122641
21202.1 0.0765194
21203.6 0.0523546
21205.2 0.0383288
21208.3 0.0234144
21211.4 0.0161293
21214.4 0.0120642
21220.6 0.00800443
21226.8 0.00621771
21233.0 0.00540456
21245.3 0.00518988
21257.7 0.00634778
21263.9 0.00764807
21270.0 0.00988418
21276.2 0.0141640
21279.3 0.0180283
21282.4 0.0245257
21285.5 0.0373626
21287.0 0.0494992
21288.6 0.0706078
21290.1 0.113948
21290.9 0.155151
21291.7 0.227199
21292.4 0.371372
21292.8 0.507306
21293.2 0.730231
21293.6 1.16052
21293.8 1.52372
21294.0 2.08689
21294.2 3.08765
21294.4 4.84605
21294.5 6.39442
21294.5 8.44070
21294.6 11.8728
21294.7 16.6477
21294.9 26.9668
21295.0 33.3267
21295.1 26.9667
21295.3 16.6482
21295.4 9.63725
21295.6 5.86658
21295.7 3.87321
21295.9 2.78321
21296.1 2.05353
21296.2 1.57556
21296.5 1.02442
21296.8 0.713690
21297.2 0.532573
21297.8 0.333854
21298.4 0.232492
21299.0 0.175358
21300.3 0.118394
21301.5 0.0935735
21302.8 0.0831487
21305.3 0.0837838
21307.8 0.106495
21310.3 0.162993
21311.6 0.216764
21312.8 0.303458
21314.1 0.450373
21315.3 0.703677
21316.7 1.12059
21318.0 1.39839
21319.3 1.11939
21320.7 0.701594
21321.9 0.452031
21323.1 0.305776
21324.3 0.217008
21325.5 0.161479
21328.0 0.0990257
21330.4 0.0672725
21332.8 0.0491610
21335.3 0.0379535
21340.1 0.0255918
21345.0 0.0195268
21349.8 0.0164573
21359.5 0.0150743
21369.3 0.0189278
21374.1 0.0240194
21379.0 0.0336371
21383.8 0.0537123
21386.3 0.0726703
21388.7 0.104925
21391.1 0.166164
21392.3 0.219882
21393.6 0.303708
21394.8 0.446980
21396.0 0.712537
21396.6 0.939306
21397.2 1.27369
21397.8 1.79884
21398.4 2.59928
21399.2 4.15904
21400.0 5.19932
21400.8 4.15844
21401.6 2.59884
21402.3 1.71556
21403.0 1.18247
21403.6 0.850867
21404.3 0.636413
21405.6 0.390474
21407.0 0.262427
21408.3 0.188150
21409.7 0.141488
21412.3 0.0885839
21415.0 0.0609670
21417.7 0.0448047
21423.1 0.0276982
21428.4 0.0194096
21433.8 0.0149369
21444.5 0.0111495
21455.2 0.0114131
21466.0 0.0176395
21471.3 0.0275535
21474.0 0.0375335
21476.7 0.0555709
21479.4 0.0930082
21480.7 0.128897
21482.0 0.191371
21483.4 0.314674
21484.1 0.426973
21484.7 0.611963
21485.4 0.947480
21485.7 1.23207
21486.1 1.64667
21486.4 2.32512
21486.7 3.44181
21487.1 5.54712
21487.4 9.48256
21487.7 15.1560
21488.0 18.9740
21488.3 15.1552
21488.6 9.48205
21488.9 5.46332
21489.3 3.35457
21489.6 2.22621
21490.0 1.58629
21490.3 1.17328
21490.7 0.907324
21491.4 0.583935
21492.1 0.404467
21492.8 0.297720
21494.1 0.180647
21495.5 0.121038
21496.9 0.0870783
21498.3 0.0656489
21499.7 0.0514485
21502.4 0.0341802
21505.2 0.0245109
21510.7 0.0146161
21516.3 0.00986948
21521.8 0.00722122
21532.9 0.00448421
21544.0 0.00314687
21555.0 0.00237966
21577.2 0.00155708
21599.3 0.00113521
21621.5 0.000885017
21665.7 0.000613607
21710.0 0.000489526
21754.3 0.000472817
21798.6 0.000803023
21820.7 0.00231470
21831.8 0.00834773
21837.3 0.0319107
21840.1 0.121490
21841.5 0.441974
21841.8 0.744942
21842.2 1.47225
21842.4 2.37927
21842.5 4.26709
21842.6 6.29074
21842.7 9.49193
21842.8 16.6341
21842.8 22.1546
21842.9 30.0202
21842.9 49.4971
21843.0 60.0409
21843.1 46.5451
21843.1 30.0201
21843.2 20.5817
21843.2 15.5388
21843.3 8.97959
21843.4 5.73607
21843.5 4.10324
21843.7 2.30947
21843.8 1.47229
21844.2 0.744975
21844.5 0.447865
21845.2 0.211079
21845.9 0.123193
21848.6 0.0325933
21854.1 0.00854467
21865.0 0.00234333
21886.8 0.000765508
21930.5 0.000368299
21974.3 0.000329766
21996.1 0.000429100
22007.0 0.000838488
22012.5 0.00244550
22015.2 0.00872697
22016.6 0.0330313
22017.3 0.122119
22017.6 0.423732
22017.8 1.30022
22017.9 3.50199
22017.9 6.64719
22018.0 19.1829
22018.0 38.3655
22018.0 19.1829
22018.1 8.04267
22018.1 4.04583
22018.2 1.72325
22018.3 0.555500
22018.6 0.163687
22019.2 0.0447355
22020.4 0.0118014
22022.7 0.00323302
22027.4 0.00105233
22036.8 0.000513673
22055.5 0.000415202
22092.9 0.000564987
22130.3 0.00131354
22149.1 0.00342692
22158.4 0.0101224
22160.8 0.0164915
22163.1 0.0336725
22164.3 0.0563736
22165.4 0.116218
22166.0 0.192942
22166.6 0.377901
22166.9 0.589778
22167.2 1.04038
22167.3 1.49906
22167.5 2.24372
22167.6 3.76513
22167.8 6.67953
22167.9 10.6497
22168.0 13.3565
22168.1 10.6496
22168.2 6.67950
22168.4 4.06420
22168.5 2.63812
22168.6 1.76730
22168.7 1.28617
22169.0 0.746964
22169.2 0.492877
22169.7 0.257199
22170.2 0.158027
22171.2 0.0781778
22172.2 0.0476237
22174.1 0.0248369
22176.1 0.0170180
22180.0 0.0129645
22183.9 0.0148391
22187.9 0.0225671
22191.8 0.0461352
22193.7 0.0781497
22194.7 0.109086
22195.7 0.163371
22196.7 0.271841
22197.2 0.371951
22197.7 0.539273
22198.2 0.849539
22198.4 1.12070
22198.6 1.52070
22198.9 2.20515
22199.1 3.37435
22199.4 5.77539
22199.5 7.77069
22199.6 10.8684
22199.8 17.2642
22200.0 21.7487
22200.2 17.2637
22200.4 10.8681
22200.5 7.97340
22200.6 6.05763
22200.8 3.72561
22201.1 2.43520
22201.3 1.72597
22201.5 1.26591
22201.7 0.976570
22202.2 0.624237
22202.6 0.432351
22203.1 0.316803
22204.0 0.190850
22204.9 0.127430
22205.8 0.0911175
22207.6 0.0532837
22209.4 0.0350007
22211.2 0.0247935
22214.8 0.0143874
22222.0 0.00673100
22229.2 0.00399302
22243.6 0.00218729
22250.8 0.00261502
22254.4 0.00587933
22256.2 0.0191482
22257.1 0.0697540
22257.5 0.252213
22257.7 0.815147
22257.8 2.22758
22257.9 5.20668
22257.9 9.25457
22258.0 18.3084
22258.0 36.5932
22258.0 18.3084
22258.1 7.53217
22258.1 4.41216
22258.2 1.78306
22258.3 0.584379
22258.6 0.168959
22259.2 0.0469658
22260.3 0.0129784
22262.5 0.00406245
22266.9 0.00169912
22275.8 0.000971061
22293.5 0.000642866
22329.0 0.000467337
22364.5 0.000487444
22382.2 0.000695650
22391.1 0.00145902
22395.5 0.00439818
22397.7 0.0158152
22398.8 0.0591032
22399.4 0.211295
22399.7 0.707861
22399.8 2.03048
22399.9 4.58629
22399.9 13.9507
22400.0 27.8748
22400.1 13.9245
22400.1 7.22819
22400.1 4.00539
22400.2 1.84567
22400.4 0.631116
22400.6 0.192137
22401.2 0.0526448
22402.4 0.0142184
22404.7 0.00402976
22409.4 0.00142412
22418.8 0.000811655
22437.5 0.000834333
22456.2 0.00143219
22465.6 0.00334773
22470.3 0.0104746
22472.6 0.0378695
22473.8 0.140908
22474.4 0.498645
22474.6 1.59244
22474.8 4.44300
22474.9 9.12772
22474.9 15.5558
22474.9 29.2277
22475.0 46.8025
22475.0 58.4060
22475.0 46.8024
22475.1 29.1792
22475.1 13.4793
22475.2 8.11485
22475.2 3.75157
22475.4 1.36256
22475.7 0.418727
22476.4 0.115574
22477.7 0.0313777
22480.2 0.00901965
22485.4 0.00339047
22495.7 0.00235959
22506.0 0.00280442
22516.4 0.00400503
22526.7 0.00667362
22531.8 0.00929893
22537.0 0.0139739
22539.6 0.0178143
22542.2 0.0235326
22544.7 0.0325834
22547.3 0.0481520
22549.9 0.0783469
22551.2 0.105351
22552.5 0.148986
22553.8 0.225888
22555.1 0.378849
22555.7 0.518602
22556.3 0.739557
22557.0 1.11922
22557.6 1.76526
22558.3 2.83589
22559.0 3.53714
22559.7 2.81904
22560.4 1.76510
22560.8 1.29435
22561.2 0.966700
22562.1 0.582735
22562.9 0.382429
22563.8 0.268094
22564.6 0.197613
22565.5 0.151412
22567.2 0.0968407
22568.9 0.0670918
22570.6 0.0493598
22574.0 0.0301158
22577.4 0.0205079
22580.8 0.0151434
22584.2 0.0119286
22587.6 0.00999186
22594.4 0.00859087
22601.2 0.0109923
22608.0 0.0309339
22611.4 0.109678
22612.3 0.187119
22613.1 0.392991
22613.6 0.660075
22614.0 1.30567
22614.2 2.10212
22614.4 3.77862
22614.5 5.56003
22614.6 8.46251
22614.7 14.8669
22614.8 20.0004
22614.8 28.3692
22614.9 44.8444
22615.0 56.8288
22615.1 44.8441
22615.2 28.3690
22615.2 18.8117
22615.3 12.5969
22615.4 6.79449
22615.6 4.17076
22615.7 2.80022
22615.9 1.50161
22616.2 0.931700
22616.7 0.458398
22617.2 0.271990
22618.3 0.128206
22619.3 0.0747564
22623.5 0.0205745
22631.8 0.00615960
22648.5 0.00214385
22681.9 0.000848066
22715.2 0.000514355
22748.6 0.000374099
22815.3 0.000282548
22848.6 0.000328508
22865.3 0.000560747
22873.6 0.00148035
22877.8 0.00510801
22879.9 0.0192000
22880.9 0.0724999
22881.4 0.263281
22881.7 0.876994
22881.8 2.50247
22881.9 6.11569
22881.9 10.2863
22882.0 21.9783
22882.0 43.9067
22882.0 21.9287
22882.1 8.54777
22882.1 4.55913
22882.2 1.70747
22882.4 0.558310
22882.7 0.161000
22883.4 0.0428577
22884.8 0.0113051
22887.5 0.00307628
22893.0 0.000977669
22904.0 0.000459599
22925.9 0.000364682
22969.8 0.000527443
23013.7 0.00155347
23024.7 0.00259343
23035.7 0.00550201
23041.2 0.00949604
23046.7 0.0205670
23049.4 0.0355995
23050.8 0.0502182
23052.1 0.0761958
23053.5 0.129228
23054.2 0.179824
23054.9 0.265402
23055.6 0.433417
23055.9 0.581143
23056.3 0.818111
23056.6 1.24792
23056.9 2.07520
23057.1 2.81488
23057.3 3.98884
23057.5 5.94460
23057.6 9.50235
23057.8 15.0503
23058.0 18.9925
23058.2 15.0499
23058.4 9.50209
23058.5 6.74919
23058.6 5.01226
23058.9 2.98331
23059.1 1.94223
23059.3 1.35406
23059.6 0.993918
23059.8 0.758929
23060.3 0.482538
23060.8 0.333062
23061.3 0.243456
23062.2 0.146177
23063.2 0.0970091
23064.2 0.0692872
23066.1 0.0404486
23068.0 0.0264884
23069.9 0.0187617
23073.8 0.0108948
23081.5 0.00516912
23089.2 0.00316853
23104.6 0.00184458
23119.9 0.00162039
23135.3 0.00202442
23150.7 0.00372149
23158.4 0.00620095
23166.1 0.0131922
23170.0 0.0227195
23171.9 0.0320760
23173.8 0.0486799
23175.8 0.0829664
23176.7 0.115422
23177.7 0.171430
23178.6 0.280558
23179.1 0.378620
23179.6 0.537860
23180.1 0.820576
23180.3 1.05104
23180.6 1.38960
23180.8 1.91120
23181.0 2.76044
23181.3 4.22434
23181.5 6.87633
23181.8 11.0533
23182.0 13.7462
23182.2 11.0529
23182.5 6.87606
23182.7 4.74197
23182.9 3.38906
23183.0 2.46577
23183.2 1.88428
23183.6 1.17574
23184.0 0.797131
23184.3 0.573870
23184.7 0.432034
23185.4 0.269503
23186.2 0.183773
23186.9 0.133216
23187.7 0.100960
23188.4 0.0793904
23189.9 0.0525267
23191.3 0.0374062
23194.3 0.0217300
23197.3 0.0142023
23200.2 0.0100418
23206.1 0.00582237
23217.9 0.00273758
23229.7 0.00164094
23253.3 0.000901137
23265.2 0.000976061
23271.1 0.00188798
23274.0 0.00567418
23275.5 0.0204485
23276.2 0.0759194
23276.6 0.270967
23276.8 0.837923
23276.9 2.12605
23276.9 4.53486
23277.0 11.2489
23277.0 22.4724
23277.0 11.2240
23277.1 3.81976
23277.2 1.66479
23277.3 0.572495
23277.5 0.176059
23278.0 0.0493303
23278.9 0.0134010
23280.7 0.00382184
23284.4 0.00133157
23291.8 0.000671058
23306.5 0.000488125
23321.2 0.000607077
23328.6 0.00133190
23332.3 0.00425848
23334.1 0.0156296
23335.0 0.0583572
23335.5 0.209320
23335.7 0.683868
23335.8 2.00959
23335.9 4.70611
23335.9 8.38471
23336.0 16.8407
23336.0 33.6811
23336.0 16.8407
23336.1 5.62559
23336.1 2.95327
23336.2 1.09381
23336.4 0.356158
23336.7 0.0999164
23337.4 0.0266774
23338.8 0.00709638
23341.6 0.00203696
23347.2 0.000738458
23358.4 0.000403071
23380.8 0.000317535
23425.5 0.000360352
23470.2 0.000713158
23492.5 0.00182857
23503.7 0.00575093
23509.3 0.0206214
23512.1 0.0770243
23513.5 0.284383
23513.9 0.481390
23514.2 0.984292
23514.4 1.61829
23514.6 2.98955
23514.6 4.52768
23514.7 7.09023
23514.8 13.3189
23514.9 18.5621
23514.9 26.5570
23515.0 44.0848
23515.0 53.2347
23515.1 40.9851
23515.1 26.5569
23515.2 15.6608
23515.2 10.6088
23515.3 5.60361
23515.4 3.40354
23515.5 2.27115
23515.7 1.20979
23515.9 0.747942
23516.3 0.366499
23516.7 0.216901
23518.3 0.0592087
23521.5 0.0163144
23527.9 0.00544977
23540.7 0.00433433
23547.2 0.00637506
23553.6 0.0127480
23556.8 0.0214519
23558.4 0.0298429
23560.0 0.0445566
23561.6 0.0739167
23562.4 0.100971
23563.2 0.146109
23564.0 0.229567
23564.4 0.300507
23564.8 0.409182
23565.2 0.586515
23565.6 0.899853
23566.0 1.50813
23566.2 2.02604
23566.4 2.78269
23566.7 4.47583
23567.0 5.56714
23567.3 4.47562
23567.6 2.78255
23567.9 1.82223
23568.2 1.24469
23568.4 0.889372
23568.7 0.661529
23569.3 0.402457
23569.8 0.268671
23570.3 0.190370
23570.9 0.142435
23572.0 0.0881935
23573.1 0.0597206
23574.1 0.0432412
23576.3 0.0257159
23578.5 0.0170598
23580.6 0.0121839
23585.0 0.00718583
23593.6 0.00348286
23602.3 0.00216382
23619.6 0.00126692
23637.0 0.00108657
23654.3 0.00129955
23671.6 0.00228208
23680.3 0.00372777
23689.0 0.00778812
23693.3 0.0132868
23695.5 0.0186332
23697.6 0.0280390
23699.8 0.0471634
23700.9 0.0649852
23702.0 0.0951973
23703.1 0.153209
23703.6 0.203567
23704.1 0.282937
23704.7 0.417820
23705.2 0.671206
23705.5 0.887123
23705.8 1.21345
23706.0 1.72280
23706.3 2.54881
23706.7 4.06104
23707.0 5.09637
23707.4 4.06083
23707.7 2.54867
23708.0 1.61004
23708.3 1.07590
23708.7 0.756800
23709.0 0.556557
23709.6 0.333572
23710.3 0.220644
23710.9 0.155500
23711.6 0.115813
23712.8 0.0712603
23714.1 0.0480714
23715.4 0.0346907
23718.0 0.0204870
23720.5 0.0135392
23723.1 0.00963246
23728.2 0.00563196
23738.5 0.00266516
23748.8 0.00159738
23769.3 0.000819140
23789.9 0.000545421
23831.0 0.000366301
23872.1 0.000348249
23913.2 0.000439092
23954.2 0.000777248
23974.8 0.00126306
23995.3 0.00263735
24005.6 0.00453325
24015.9 0.00982120
24021.0 0.0170236
24023.6 0.0240900
24026.2 0.0366727
24028.7 0.0627194
24030.0 0.0877633
24031.3 0.130992
24032.6 0.217028
24033.2 0.294867
24033.9 0.422925
24034.5 0.654765
24034.8 0.847576
24035.1 1.13652
24035.5 1.59383
24035.8 2.36705
24036.1 3.77318
24036.4 6.49174
24036.7 10.3562
24037.0 12.9797
24037.3 10.3558
24037.6 6.49146
24037.8 4.43297
24038.0 3.13968
24038.2 2.30476
24038.5 1.74911
24038.9 1.09321
24039.3 0.742102
24039.8 0.531085
24040.2 0.400462
24041.1 0.250368
24042.0 0.170305
24042.9 0.123654
24043.8 0.0935525
24044.7 0.0734307
24046.4 0.0485999
24048.2 0.0345474
24051.7 0.0200641
24055.3 0.0131409
24058.8 0.00930778
24065.9 0.00544575
24080.0 0.00268624
24094.2 0.00181981
24122.5 0.00224325
24136.6 0.00653893
24143.7 0.0236146
24145.5 0.0407356
24147.3 0.0874640
24148.1 0.149635
24149.0 0.309790
24149.5 0.508026
24149.7 0.686719
24149.9 0.977921
24150.1 1.49780
24150.2 1.92413
24150.3 2.55433
24150.5 3.53379
24150.6 5.14955
24150.7 7.99188
24150.8 13.7686
24150.9 21.6496
24151.0 27.5308
24151.1 21.6493
24151.2 13.7684
24151.3 9.53242
24151.4 7.04190
24151.4 5.14954
24151.5 4.02557
24151.7 2.55436
24151.8 1.75064
24152.0 1.26971
24152.1 0.961029
24152.4 0.603796
24152.7 0.413592
24153.0 0.300739
24153.6 0.179373
24154.8 0.0847499
24156.0 0.0493003
24158.4 0.0228458
24160.8 0.0132937
24165.6 0.00629757
24170.4 0.00381893
24189.6 0.00161686
24208.7 0.00270412
24218.3 0.00883284
24223.1 0.0330354
24225.5 0.124960
24226.7 0.454867
24227.0 0.760624
24227.3 1.51718
24227.4 2.39812
24227.6 4.30974
24227.7 9.59137
24227.8 15.5739
24227.9 27.3083
24227.9 43.6933
24228.0 54.6167
24228.1 43.6932
24228.1 27.3082
24228.2 16.8052
24228.2 10.9235
24228.4 5.74520
24228.5 3.34279
24228.6 2.24232
24228.8 1.17335
24229.0 0.731792
24229.5 0.357103
24229.9 0.210718
24231.7 0.0568501
24235.3 0.0149535
24242.6 0.00404008
24257.0 0.00121208
24285.8 0.000451633
24343.6 0.000225170
24459.0 0.000179728
24574.4 0.000333883
24632.2 0.000802119
24661.0 0.00201268
24675.4 0.00553326
24682.7 0.0176978
24686.3 0.0629565
24687.2 0.107497
24688.1 0.227192
24688.5 0.382230
24689.0 0.775455
24689.2 1.26338
24689.4 2.32425
24689.5 3.56063
24689.6 5.76217
24689.8 10.5657
24689.8 15.7246
24689.9 23.6680
24689.9 37.1866
24690.0 47.3338
24690.1 37.1864
24690.1 23.6679
24690.2 13.6978
24690.3 8.33009
24690.4 5.49079
24690.4 4.01992
24690.6 2.25133
24690.8 1.46691
24691.1 0.747304
24691.4 0.451379
24692.0 0.216592
24692.6 0.127474
24695.1 0.0363577
24700.0 0.0130239
24705.0 0.0101420
24709.9 0.0116288
24714.8 0.0171971
24717.3 0.0229064
24719.8 0.0328871
24722.3 0.0523148
24723.5 0.0697488
24724.7 0.0976076
24726.0 0.146907
24727.2 0.243493
24727.8 0.330958
24728.4 0.470717
24729.1 0.705338
24729.7 1.09869
24730.3 1.75804
24731.0 2.19831
24731.7 1.75822
24732.3 1.09930
24732.9 0.736506
24733.4 0.511423
24734.0 0.370480
24734.5 0.280305
24735.6 0.174430
24736.7 0.119949
24737.8 0.0884906
24738.9 0.0695703
24741.1 0.0508204
24743.3 0.0481882
24745.5 0.0676142
24746.6 0.101371
24747.7 0.197034
24748.2 0.325585
24748.8 0.651239
24749.0 1.06794
24749.3 2.01275
24749.5 3.08472
24749.6 5.04298
24749.7 6.92667
24749.7 9.98039
24749.8 15.1958
24749.9 23.2832
24749.9 37.7751
24750.0 46.3969
24750.1 37.7747
24750.1 23.1244
24750.2 16.2082
24750.3 11.8676
24750.4 6.92590
24750.5 4.45569
24750.6 3.08350
24750.8 1.67214
24751.0 1.06577
24751.4 0.534161
24751.8 0.321469
24752.6 0.155501
24753.4 0.0930519
24755.1 0.0459104
24756.7 0.0283836
24760.0 0.0149292
24763.3 0.00969467
24769.8 0.00537745
24776.4 0.00355803
24789.5 0.00198668
24802.6 0.00132363
24828.8 0.000865870
24841.9 0.00115935
24848.4 0.00277992
24851.7 0.00931844
24853.3 0.0347848
24854.1 0.130942
24854.6 0.473133
24854.8 1.49599
24854.9 3.91921
24854.9 7.93902
24855.0 22.1547
24855.0 44.2616
24855.0 22.1074
24855.1 11.2677
24855.1 5.83302
24855.2 2.29362
24855.4 0.734570
24855.7 0.214983
24856.3 0.0585853
24857.5 0.0155167
24860.0 0.00434751
24865.0 0.00149238
24875.0 0.000865454
24885.0 0.00142160
24890.0 0.00423570
24892.5 0.0153676
24893.7 0.0583562
24894.3 0.214495
24894.6 0.733241
24894.8 2.28978
24894.9 5.82349
24894.9 11.2495
24895.0 22.1190
24895.0 44.1904
24895.0 22.0717
24895.1 9.39022
24895.1 5.06075
24895.2 1.90963
24895.4 0.595880
24895.8 0.166966
24896.5 0.0444322
24897.9 0.0117793
24900.8 0.00325623
24906.5 0.00107500
24918.0 0.000506065
24940.9 0.000353274
24986.8 0.000407420
25032.7 0.00111152
25055.6 0.00398347
25061.4 0.00690886
25067.1 0.0150226
25070.0 0.0259956
25072.9 0.0556546
25074.3 0.0945073
25075.7 0.193178
25076.4 0.313874
25076.8 0.421139
25077.2 0.587147
25077.5 0.882153
25077.9 1.45611
25078.1 1.96315
25078.2 2.75708
25078.4 4.05321
25078.6 6.12036
25078.8 9.73864
25079.0 12.2264
25079.2 9.73839
25079.4 6.10548
25079.6 4.14629
25079.8 2.87107
25079.9 2.07123
25080.1 1.57628
25080.4 0.964260
25080.8 0.652500
25081.1 0.464922
25081.4 0.350183
25082.1 0.218624
25082.8 0.148381
25083.4 0.107685
25084.7 0.0638399
25087.4 0.0298819
25090.1 0.0173114
25095.4 0.00795316
25100.7 0.00457786
25111.4 0.00211946
25122.1 0.00124570
25164.7 0.000397426
25207.3 0.000275632
25228.6 0.000385999
25239.3 0.000933762
25244.6 0.00313602
25247.3 0.0117587
25248.6 0.0447753
25249.3 0.168133
25249.6 0.580635
25249.8 1.84216
25249.9 4.48608
25249.9 8.37541
25250.0 20.7240
25250.0 41.4707
25250.0 20.7240
25250.1 10.0604
25250.1 5.16785
25250.2 2.22844
25250.3 0.722734
25250.6 0.206692
25251.2 0.0562998
25252.4 0.0146971
25254.8 0.00389091
25259.5 0.00112211
25269.0 0.000424050
25288.0 0.000274149
25307.0 0.000381034
25316.5 0.000876616
25321.2 0.00279885
25323.6 0.0102661
25324.8 0.0389989
25325.4 0.142934
25325.7 0.500480
25325.8 1.55192
25325.9 3.64042
25325.9 7.22581
25326.0 17.0384
25326.0 34.0766
25326.0 17.0384
25326.1 8.86248
25326.1 5.00679
25326.2 2.14825
25326.3 0.786726
25326.5 0.233406
25327.0 0.0651656
25327.9 0.0174036
25329.7 0.00465303
25333.3 0.00139906
25340.5 0.000626822
25355.0 0.000693816
25369.4 0.00215908
25376.7 0.00808220
25380.3 0.0311390
25382.1 0.118139
25383.0 0.423393
25383.2 0.709661
25383.5 1.37108
25383.6 2.20247
25383.7 3.83310
25383.8 8.03949
25383.9 13.5479
25383.9 23.6619
25384.0 37.0585
25384.0 47.3241
25384.1 37.0583
25384.1 23.6618
25384.1 16.4743
25384.2 11.2616
25384.2 6.41052
25384.3 4.06284
25384.4 2.78385
25384.5 1.52860
25384.7 0.960702
25385.0 0.468681
25385.2 0.280759
25386.4 0.0766891
25388.6 0.0201289
25393.2 0.00522549
25402.2 0.00141040
25420.3 0.000441820
25456.5 0.000205350
25492.7 0.000219810
25510.9 0.000452197
25519.9 0.00140887
25524.4 0.00520834
25526.7 0.0200119
25527.8 0.0762429
25528.4 0.283650
25528.7 0.954416
25528.8 2.76114
25528.9 6.33764
25528.9 12.1305
25529.0 22.5674
25529.0 38.5752
25529.0 45.1349
25529.0 38.5751
25529.0 22.5674
25529.1 8.59515
25529.2 4.27209
25529.3 1.63720
25529.5 0.496350
25529.9 0.139959
25530.7 0.0368319
25532.4 0.00958298
25535.7 0.00252449
25542.3 0.000727494
25555.5 0.000273160
25581.9 0.000159357
25634.7 0.000137608
25740.4 0.000174963
25846.1 0.000365730
25898.9 0.000986297
25925.3 0.00326660
25931.9 0.00557284
25938.5 0.0120280
25941.8 0.0208739
25945.1 0.0453699
25946.8 0.0783333
25948.4 0.166925
25949.3 0.282597
25950.1 0.571783
25950.5 0.928821
25950.7 1.24582
25950.9 1.72306
25951.1 2.58099
25951.3 4.12653
25951.4 5.59964
25951.5 7.66165
25951.6 10.8837
25951.7 16.2096
25951.9 25.7911
25952.0 32.4576
25952.1 25.7907
25952.3 16.2094
25952.4 11.2949
25952.5 7.92188
25952.6 5.76860
25952.6 4.46797
25952.8 2.75275
25953.0 1.88449
25953.2 1.34491
25953.4 1.01973
25953.8 0.635452
25954.6 0.313684
25955.4 0.187282
25956.9 0.0878361
25958.5 0.0510296
25961.6 0.0235407
25964.7 0.0136510
25977.1 0.00397824
25989.5 0.00269291
25995.7 0.00428221
25998.9 0.0117662
26000.4 0.0409295
26001.2 0.151051
26001.6 0.540377
26001.8 1.68545
26001.9 4.60680
26001.9 9.69722
26002.0 21.8926
26002.0 43.7838
26002.0 21.8926
26002.1 8.20001
26002.2 3.61657
26002.3 1.34287
26002.5 0.401332
26003.0 0.110694
26003.9 0.0300182
26005.7 0.00880034
26009.4 0.00330715
26016.7 0.00196348
26031.4 0.00225003
26046.0 0.00609098
26049.7 0.0100569
26053.3 0.0209747
26055.2 0.0355652
26057.0 0.0743520
26057.9 0.124245
26058.8 0.246549
26059.3 0.390999
26059.8 0.708277
26060.0 1.02882
26060.2 1.61029
26060.3 2.11312
26060.4 2.78482
26060.6 3.76867
26060.7 5.30228
26060.8 8.41489
26061.0 10.5882
26061.2 8.41472
26061.3 5.28634
26061.5 3.76862
26061.6 2.71278
26061.7 2.01541
26061.8 1.57627
26062.0 1.01088
26062.3 0.697860
26062.7 0.382388
26063.2 0.242221
26064.1 0.121180
26065.0 0.0729631
26066.9 0.0349287
26068.7 0.0206435
26072.4 0.00998224
26076.1 0.00614158
26083.6 0.00340037
26091.0 0.00251866
26105.8 0.00218465
26120.6 0.00266882
26135.4 0.00414295
26142.8 0.00568302
26150.2 0.00849921
26153.9 0.0108634
26157.6 0.0144299
26161.3 0.0201847
26165.0 0.0303504
26166.8 0.0386389
26168.7 0.0508889
26170.5 0.0700771
26172.4 0.102582
26174.2 0.164109
26175.2 0.218072
26176.1 0.301955
26177.0 0.445504
26177.9 0.710365
26178.4 0.939648
26178.9 1.27693
26179.3 1.79675
26179.8 2.60052
26180.4 4.15658
26181.0 5.19207
26181.6 4.15623
26182.2 2.60028
26183.0 1.46419
26183.7 0.899447
26184.4 0.594234
26185.1 0.420113
26185.9 0.310231
26186.6 0.238731
26188.0 0.153012
26189.5 0.106182
26190.9 0.0779244
26193.8 0.0471381
26196.7 0.0315435
26199.6 0.0226109
26202.5 0.0170268
26205.4 0.0133178
26211.2 0.00882602
26217.0 0.00633443
26228.6 0.00383781
26240.2 0.00275758
26251.7 0.00245853
26263.3 0.00399633
26269.1 0.0114529
26272.0 0.0408288
26273.5 0.151140
26274.2 0.532058
26274.6 1.68074
26274.7 4.40031
26274.8 8.90626
26274.9 14.6479
26274.9 24.8044
26275.0 40.2877
26275.0 49.3152
26275.0 40.2875
26275.1 24.5125
26275.1 14.6479
26275.2 9.77108
26275.3 5.05729
26275.4 1.91960
26275.6 0.992344
26275.8 0.603316
26276.4 0.172727
26277.8 0.0466321
26280.5 0.0128373
26285.9 0.00398652
26296.6 0.00164691
26318.2 0.000972236
26361.3 0.000926285
26404.4 0.00222811
26415.2 0.00364507
26426.0 0.00764339
26431.4 0.0131295
26436.7 0.0282778
26439.4 0.0486198
26440.8 0.0683055
26442.1 0.102646
26443.5 0.172085
26444.2 0.236044
26444.8 0.343319
26445.5 0.547534
26445.8 0.724372
26446.2 0.990220
26446.5 1.44495
26446.8 2.24310
26447.0 2.91649
26447.2 3.90295
26447.4 5.38125
26447.5 7.48339
26447.8 12.0409
26448.0 14.9641
26448.2 12.0406
26448.5 7.48315
26448.7 5.27635
26448.8 3.76548
26449.0 2.77885
26449.2 2.11688
26449.6 1.32950
26449.9 0.905108
26450.3 0.653437
26450.6 0.492929
26451.4 0.310123
26452.1 0.211625
26452.8 0.153482
26454.2 0.0915401
26455.7 0.0605981
26457.1 0.0431794
26460.0 0.0251562
26462.8 0.0164836
26465.7 0.0116861
26471.4 0.00681383
26482.9 0.00326317
26494.3 0.00200688
26517.3 0.00112495
26540.2 0.000861477
26586.0 0.00103790
26608.9 0.00236495
26620.4 0.00752072
26626.1 0.0274338
26629.0 0.102903
26630.4 0.371715
26630.8 0.621987
26631.2 1.24295
26631.3 1.96862
26631.5 3.55168
26631.6 5.13661
26631.7 7.97657
26631.8 13.5830
26631.9 23.7674
26631.9 37.8373
26632.0 47.3644
26632.1 37.8371
26632.1 23.5975
26632.2 16.5898
26632.2 11.9614
26632.3 6.82505
26632.4 4.32672
26632.5 3.06937
26632.7 1.71438
26632.9 1.08822
26633.3 0.548224
26633.7 0.328955
26634.4 0.155072
26635.2 0.0906070
26638.3 0.0243769
26644.4 0.00689978
26656.6 0.00260481
26668.8 0.00247056
26674.9 0.00452169
26677.9 0.0127958
26679.4 0.0448933
26680.2 0.163461
26680.6 0.570264
26680.8 1.77597
26680.9 4.83699
26680.9 10.1199
26681.0 21.9776
26681.0 43.9089
26681.0 21.9330
26681.1 12.0689
26681.1 7.33360
26681.2 3.05983
26681.3 1.01772
26681.6 0.305589
26682.1 0.0835641
26683.2 0.0231935
26685.4 0.00731013
26689.8 0.00334433
26698.5 0.00273025
26716.0 0.00464190
26724.7 0.00763845
26729.1 0.0106033
26733.5 0.0158943
26737.8 0.0267984
26740.0 0.0371514
26742.2 0.0550331
26744.4 0.0901504
26745.5 0.121673
26746.6 0.172974
26747.6 0.264347
26748.2 0.339894
26748.7 0.449193
26749.3 0.621516
26749.8 0.898484
26750.4 1.38881
26750.9 2.24952
26751.5 3.61852
26752.0 4.51153
26752.6 3.59168
26753.1 2.24935
26753.6 1.38874
26754.2 0.911801
26754.7 0.633500
26755.2 0.461821
26755.8 0.350019
26756.3 0.273727
26757.3 0.179895
26758.4 0.126908
26759.5 0.0942215
26761.6 0.0577861
26763.7 0.0390580
26765.8 0.0281954
26770.1 0.0167531
26774.3 0.0111758
26778.5 0.00805371
26787.0 0.00489265
26804.0 0.00291819
26812.5 0.00390662
26816.7 0.00958521
26818.8 0.0321697
26819.9 0.116991
26820.4 0.414709
26820.7 1.37720
26820.8 3.70660
26820.9 8.31329
26820.9 13.0085
26820.9 23.7836
26821.0 47.5227
26821.1 23.7406
26821.1 11.1152
26821.1 6.40531
26821.2 2.59416
26821.4 0.891245
26821.7 0.265012
26822.4 0.0733893
26823.8 0.0202823
26826.5 0.00622952
26832.0 0.00254794
26842.9 0.00149124
26864.7 0.00113817
26886.5 0.00113447
26908.3 0.00133404
26930.1 0.00187364
26941.0 0.00242470
26951.9 0.00341062
26962.8 0.00542481
26968.3 0.00732628
26973.7 0.0106009
26979.2 0.0170160
26981.9 0.0228801
26984.6 0.0326081
26987.4 0.0508404
26990.1 0.0914821
26991.4 0.134611
26992.1 0.168663
26992.8 0.217623
26993.5 0.291189
26993.8 0.342330
26994.2 0.407403
26994.5 0.491233
26994.8 0.600303
26995.2 0.742759
26995.5 0.927135
26995.9 1.17979
26996.3 1.46820
26997.0 1.83174
26997.4 1.73137
26997.7 1.48486
26998.5 0.962361
26999.3 0.624463
27000.0 0.460823
27000.8 0.397320
27001.6 0.412254
27002.4 0.531771
27002.8 0.665476
27003.1 0.893669
27003.5 1.33551
27003.7 1.72609
27003.9 2.29500
27004.1 3.27185
27004.3 4.89853
27004.5 7.95673
27004.7 14.0285
27004.8 22.4048
27005.0 27.9882
27005.2 22.3998
27005.3 14.0190
27005.4 9.71513
27005.6 7.11535
27005.7 5.23841
27005.8 4.07320
27006.0 2.59518
27006.2 1.81579
27006.5 1.32338
27006.7 1.01916
27007.1 0.654350
27007.6 0.457991
27008.0 0.340230
27008.9 0.211585
27009.8 0.146066
27010.7 0.107897
27012.5 0.0669585
27014.3 0.0462745
27016.1 0.0342151
27019.7 0.0212285
27023.3 0.0146318
27026.9 0.0108042
27034.1 0.00671382
27041.4 0.00467332
27048.6 0.00351133
27063.0 0.00230963
27077.4 0.00174494
27091.8 0.00145110
27120.6 0.00122582
27149.4 0.00125999
27178.2 0.00155736
27207.0 0.00266637
27221.4 0.00536967
27228.6 0.0136077
27232.2 0.0427379
27234.0 0.146245
27234.5 0.242487
27234.9 0.482304
27235.2 0.773266
27235.4 1.38643
27235.6 3.24263
27235.7 5.60459
27235.8 10.9643
27235.9 17.4188
27236.0 21.8551
27236.1 17.4187
27236.2 10.8953
27236.2 7.47078
27236.3 5.30718
27236.4 2.84565
27236.7 1.16284
27237.2 0.392193
27238.2 0.118036
27240.3 0.0361501
27244.4 0.0153085
27248.5 0.0136190
27252.6 0.0167656
27256.7 0.0256202
27258.7 0.0344723
27260.8 0.0499430
27262.8 0.0802467
27263.8 0.107677
27264.9 0.151778
27265.9 0.230807
27266.4 0.294561
27266.9 0.387906
27267.4 0.531042
27267.9 0.762563
27268.4 1.15789
27268.9 1.84996
27269.5 2.96409
27270.0 3.70893
27270.5 2.96387
27271.1 1.84979
27271.5 1.26499
27271.9 0.891991
27272.3 0.652735
27272.7 0.497506
27273.5 0.311569
27274.3 0.212056
27275.1 0.152724
27275.9 0.115539
27277.6 0.0728374
27279.2 0.0501606
27280.8 0.0368695
27284.1 0.0226032
27287.3 0.0155554
27290.6 0.0115777
27297.1 0.00751793
27303.6 0.00562395
27310.0 0.00463104
27323.0 0.00378467
27349.0 0.00380777
27375.0 0.00506982
27388.0 0.00629604
27401.0 0.00822109
27414.0 0.0113972
27427.0 0.0171089
27433.5 0.0218349
27439.9 0.0288948
27446.4 0.0401513
27452.9 0.0596318
27459.4 0.0979073
27462.7 0.132566
27465.9 0.189081
27469.2 0.290840
27470.8 0.375094
27472.4 0.499546
27474.1 0.695532
27475.7 1.01950
27477.3 1.59351
27478.9 2.64654
27480.5 4.23673
27482.0 5.28603
27483.6 4.22494
27485.1 2.64597
27486.7 1.62198
27488.2 1.05132
27489.8 0.723702
27491.3 0.524055
27492.9 0.395218
27494.5 0.307907
27497.6 0.201286
27500.7 0.141507
27503.8 0.104810
27510.1 0.0640986
27516.3 0.0432711
27522.5 0.0312333
27528.8 0.0236664
27535.0 0.0186104
27547.5 0.0125087
27560.0 0.00914262
27584.9 0.00590835
27609.9 0.00485401
27622.4 0.00492920
27634.8 0.00558273
27647.3 0.00740571
27653.6 0.00928808
27659.8 0.0126284
27666.0 0.0192280
27669.2 0.0251824
27672.3 0.0348534
27673.8 0.0421025
27675.4 0.0519889
27677.0 0.0659144
27678.5 0.0863013
27679.3 0.100172
27680.1 0.117552
27680.9 0.139627
27681.6 0.168062
27682.4 0.205185
27683.2 0.254187
27684.0 0.319176
27684.8 0.403315
27685.6 0.516960
27686.4 0.645241
27688.0 0.805277
27688.8 0.757086
27689.6 0.643543
27691.3 0.403187
27692.5 0.279347
27693.7 0.199719
27694.9 0.147485
27696.1 0.112813
27698.5 0.0714464
27701.0 0.0492527
27703.4 0.0360346
27705.8 0.0276393
27710.7 0.0179616
27715.5 0.0128473
27720.4 0.00983683
27730.1 0.00665656
27739.8 0.00515937
27749.5 0.00441859
27768.9 0.00410358
27788.3 0.00508463
27798.0 0.00638300
27807.7 0.00887949
27812.5 0.0110034
27817.4 0.0142334
27822.2 0.0194625
27827.1 0.0287177
27831.9 0.0474531
27834.4 0.0650410
27836.8 0.0947941
27839.2 0.151637
27840.4 0.201245
27841.6 0.279597
27842.8 0.414635
27844.1 0.668253
27844.7 0.887842
27845.3 1.21606
27845.9 1.74061
27846.5 2.55641
27847.2 4.10059
27848.0 5.11239
27848.8 4.07892
27849.5 2.55638
27850.4 1.52289
27851.2 0.967461
27852.0 0.657305
27852.8 0.473756
27853.6 0.355242
27854.4 0.275835
27856.1 0.180485
27857.7 0.127394
27859.3 0.0954660
27862.6 0.0612004
27865.9 0.0461626
27869.1 0.0445234
27870.8 0.0527293
27872.4 0.0809848
27873.2 0.119536
27874.0 0.214694
27874.9 0.567584
27875.1 0.813796
27875.3 1.22839
27875.5 2.02076
27875.6 2.68629
27875.7 3.72981
27875.8 4.78837
27875.8 5.96628
27876.0 7.43037
27876.1 7.00052
27876.2 5.96586
27876.3 3.71756
27876.4 2.76623
27876.5 2.07578
27876.7 1.25503
27876.9 0.827315
27877.1 0.583464
27877.3 0.433267
27877.5 0.334850
27877.9 0.218575
27878.3 0.155363
27878.7 0.117283
27879.5 0.0759834
27880.3 0.0546526
27881.1 0.0422846
27882.7 0.0291265
27884.3 0.0224126
27885.9 0.0184801
27889.1 0.0141478
27895.4 0.0107061
27901.8 0.0101138
27908.2 0.0120090
27914.6 0.0197907
27917.8 0.0309203
27919.3 0.0417118
27920.9 0.0606015
27922.5 0.0983598
27923.3 0.132974
27924.1 0.189409
27924.9 0.293466
27925.3 0.380747
27925.7 0.508554
27926.1 0.716907
27926.5 1.07370
27926.9 1.73395
27927.3 2.98538
27927.7 4.76696
27928.0 5.96836
27928.4 4.76672
27928.7 2.98516
27928.9 2.11874
27929.2 1.52624
27929.4 1.13481
27929.7 0.878532
27930.2 0.560408
27930.7 0.385786
27931.2 0.279261
27931.7 0.212363
27932.6 0.134638
27933.6 0.0927663
27934.6 0.0681531
27936.6 0.0414710
27938.5 0.0281642
27940.5 0.0205755
27944.4 0.0126809
27952.3 0.00664859
27960.2 0.00436535
27975.9 0.00256650
27991.7 0.00184418
28007.4 0.00146949
28023.2 0.00125167
28054.6 0.00105294
28086.1 0.00107773
28117.6 0.00148481
28149.1 0.00397130
28164.9 0.0134165
28168.8 0.0228043
28172.7 0.0483473
28174.7 0.0822801
28175.7 0.115058
28176.7 0.171731
28177.7 0.285607
28178.1 0.389213
28178.6 0.561026
28179.1 0.875873
28179.4 1.14762
28179.6 1.54347
28179.9 2.20876
28180.1 3.31562
28180.4 5.49666
28180.6 9.72484
28180.8 15.6856
28181.0 19.4582
28181.2 15.6853
28181.4 9.72468
28181.6 5.74648
28181.9 3.64203
28182.1 2.46939
28182.3 1.76951
28182.5 1.32446
28182.7 1.02610
28183.2 0.665680
28183.6 0.465723
28184.1 0.343841
28184.9 0.209521
28185.8 0.140681
28186.7 0.101633
28188.5 0.0608804
28190.2 0.0412816
28192.0 0.0307297
28195.5 0.0212605
28199.0 0.0199284
28202.6 0.0281083
28204.3 0.0419828
28206.1 0.0800820
28207.0 0.128525
28207.9 0.246038
28208.3 0.379196
28208.7 0.657839
28209.0 0.924345
28209.2 1.37874
28209.4 2.21541
28209.6 3.88515
28209.8 6.24595
28210.0 7.76609
28210.2 6.24571
28210.4 3.88485
28210.5 2.61975
28210.7 1.80660
28210.9 1.29981
28211.0 0.988676
28211.3 0.612420
28211.6 0.413980
28212.0 0.294989
28212.3 0.222616
28212.9 0.139868
28214.1 0.0702332
28215.4 0.0428487
28217.9 0.0213281
28220.4 0.0132092
28225.4 0.00693923
28230.3 0.00452535
28240.3 0.00258337
28250.3 0.00179462
28290.2 0.000881371
28330.1 0.000734383
28350.0 0.000841783
28360.0 0.00131114
28365.0 0.00313382
28367.5 0.0101878
28368.7 0.0371263
28369.3 0.133208
28369.6 0.441891
28369.8 1.31467
28369.9 3.12802
28369.9 10.9719
28370.0 21.9432
28370.1 10.9719
28370.1 3.58234
28370.2 1.58483
28370.3 0.586567
28370.6 0.176370
28371.1 0.0497499
28372.2 0.0136883
28374.3 0.00405032
28378.6 0.00158668
28387.1 0.000995899
28404.1 0.000950913
28438.2 0.00145620
28472.2 0.00408009
28480.8 0.00659687
28485.0 0.00903582
28489.3 0.0133677
28493.5 0.0223411
28495.7 0.0309892
28497.8 0.0461096
28499.9 0.0766509
28501.0 0.105285
28502.0 0.153246
28503.1 0.244740
28503.6 0.323605
28504.2 0.447027
28504.7 0.654632
28505.2 1.03851
28505.5 1.36762
28505.8 1.83870
28506.0 2.58677
28506.3 3.68915
28506.6 5.90277
28507.0 7.37891
28507.4 5.90256
28507.7 3.68908
28508.0 2.39099
28508.4 1.63482
28508.7 1.16948
28509.0 0.870893
28509.6 0.531071
28510.2 0.355407
28510.8 0.252715
28511.5 0.189650
28512.7 0.118313
28514.0 0.0809565
28515.2 0.0593716
28517.7 0.0366162
28520.2 0.0256657
28522.6 0.0198512
28527.6 0.0151219
28532.6 0.0158555
28537.6 0.0245963
28540.1 0.0378865
28542.5 0.0738137
28543.8 0.120084
28544.4 0.162455
28545.0 0.233017
28545.6 0.363058
28546.0 0.473192
28546.3 0.641264
28546.6 0.914028
28546.9 1.39209
28547.2 2.30854
28547.4 3.10902
28547.5 4.18026
28547.8 6.68613
28548.0 8.35669
28548.3 6.68592
28548.5 4.18008
28548.7 2.77291
28548.9 1.90845
28549.1 1.37152
28549.3 1.03827
28549.7 0.641099
28550.2 0.432571
28550.6 0.310933
28551.0 0.234217
28551.8 0.146895
28552.6 0.100705
28553.4 0.0739775
28555.1 0.0454796
28558.4 0.0235206
28561.7 0.0155725
28568.2 0.0103938
28574.8 0.0100821
28581.4 0.0131231
28584.7 0.0167187
28587.9 0.0231940
28591.2 0.0359913
28594.5 0.0656139
28596.2 0.0974638
28597.0 0.122660
28597.8 0.158750
28598.6 0.212489
28599.0 0.249451
28599.4 0.296002
28599.8 0.355209
28600.3 0.431057
28600.7 0.528374
28601.1 0.652017
28601.6 0.836952
28602.0 1.04364
28603.0 1.30075
28603.5 1.22221
28604.0 1.03918
28604.9 0.651802
28605.6 0.470591
28606.2 0.348498
28607.5 0.205846
28608.7 0.133489
28610.0 0.0929488
28611.3 0.0682702
28612.6 0.0522337
28615.1 0.0334946
28617.6 0.0233385
28620.2 0.0172574
28625.2 0.0106592
28630.3 0.00732750
28635.4 0.00541579
28645.5 0.00340518
28655.7 0.00241823
28665.8 0.00186038
28686.1 0.00128869
28706.4 0.00102688
28726.7 0.000902337
28767.3 0.000865380
28807.9 0.00105667
28828.2 0.00128066
28848.5 0.00167304
28868.8 0.00242040
28889.1 0.00414077
28899.2 0.00609856
28909.4 0.0106928
28914.4 0.0162522
28919.5 0.0304030
28922.1 0.0487178
28923.3 0.0662846
28924.6 0.0969246
28925.9 0.159474
28926.5 0.219067
28927.1 0.319729
28927.8 0.517834
28928.1 0.695600
28928.4 0.972289
28928.7 1.47266
28929.0 2.42458
28929.2 3.30122
28929.3 4.70188
28929.5 7.05040
28929.7 10.8334
28929.8 17.4513
28930.0 21.6254
28930.2 17.4512
28930.3 10.8025
28930.5 7.65051
28930.6 5.44034
28930.7 4.00446
28930.9 3.10680
28931.1 1.94114
28931.4 1.33673
28931.6 0.963074
28931.9 0.733968
28932.4 0.467794
28932.9 0.323479
28933.4 0.239822
28934.4 0.149267
28936.4 0.0801825
28938.4 0.0562050
28942.5 0.0441340
28946.5 0.0507343
28950.6 0.0752053
28952.6 0.100174
28954.6 0.143450
28956.6 0.226269
28957.6 0.298718
28958.6 0.412765
28959.6 0.605958
28960.7 0.966672
28961.2 1.27557
28961.7 1.72985
28962.2 2.44612
28962.7 3.53448
28963.3 5.66181
28964.0 7.04813
28964.7 5.62738
28965.3 3.53383
28965.9 2.31077
28966.5 1.57236
28967.1 1.12042
28967.6 0.835834
28968.8 0.506960
28970.0 0.339074
28971.1 0.241470
28972.3 0.180965
28974.6 0.112475
28976.9 0.0766218
28979.2 0.0556521
28981.5 0.0423433
28983.8 0.0334055
28988.4 0.0224271
28993.0 0.0162439
28997.6 0.0124201
29002.2 0.00990040
29011.5 0.00692192
29020.7 0.00535655
29039.2 0.00413341
29057.6 0.00446542
29076.1 0.00727843
29085.3 0.0115776
29089.9 0.0158732
29094.5 0.0236087
29099.1 0.0396715
29101.4 0.0550703
29103.7 0.0817354
29106.1 0.134557
29107.2 0.182432
29108.4 0.261147
29109.5 0.405219
29110.1 0.525537
29110.7 0.702692
29111.2 0.988102
29111.8 1.46199
29112.4 2.33860
29113.0 3.97108
29113.5 6.35344
29114.0 7.94156
29114.5 6.35304
29115.0 3.97081
29115.6 2.37994
29116.1 1.51784
29116.7 1.03339
29117.2 0.746755
29117.8 0.559678
29118.3 0.435905
29119.4 0.283917
29120.5 0.199148
29121.6 0.147289
29123.8 0.0899307
29126.0 0.0605643
29128.1 0.0437096
29130.3 0.0331162
29132.5 0.0260348
29136.9 0.0174591
29141.2 0.0127169
29145.6 0.00986219
29150.0 0.00807333
29158.7 0.00638137
29163.1 0.00630320
29167.4 0.00692019
29171.8 0.00891444
29174.0 0.0110410
29176.1 0.0148613
29178.3 0.0224634
29179.4 0.0293416
29180.5 0.0405234
29181.6 0.0603365
29182.7 0.0999686
29183.2 0.136419
29183.8 0.194143
29184.3 0.294195
29184.9 0.465053
29185.4 0.742180
29186.0 0.926633
29186.6 0.742071
29187.1 0.464906
29187.6 0.321729
29188.0 0.229151
29188.4 0.169089
29188.9 0.128973
29189.7 0.0814493
29190.6 0.0559184
29191.4 0.0408000
29192.3 0.0311611
29194.0 0.0201100
29195.7 0.0141980
29197.5 0.0106870
29200.9 0.00689328
29204.3 0.00496668
29207.8 0.00384760
29214.6 0.00263371
29221.5 0.00200325
29228.4 0.00162058
29242.1 0.00117905
29269.6 0.000769010
29297.0 0.000575276
29352.0 0.000427507
29379.5 0.000559655
29393.2 0.00127584
29400.1 0.00418308
29403.5 0.0155638
29405.2 0.0593154
29406.1 0.220489
29406.5 0.767102
29406.7 2.26899
29406.8 5.66588
29406.9 10.0921
29406.9 22.5118
29407.0 37.0158
29407.0 45.0235
29407.0 37.0158
29407.1 22.5118
29407.1 13.2279
29407.1 7.88348
29407.2 3.56394
29407.4 1.32813
29407.7 0.401741
29408.3 0.110836
29409.5 0.0295172
29412.0 0.00776153
29416.9 0.00216469
29426.8 0.000733788
29446.5 0.000361797
29486.0 0.000264078
29525.5 0.000332124
29545.2 0.000727518
29555.1 0.00232934
29560.0 0.00863971
29562.5 0.0331913
29563.7 0.124946
29564.3 0.452822
29564.6 1.49313
29564.8 3.98014
29564.9 8.69200
29564.9 14.3581
29564.9 22.3840
29565.0 37.5797
29565.0 44.7354
29565.0 37.5796
29565.1 22.3514
29565.1 9.77715
29565.2 5.17922
29565.3 2.09728
29565.6 0.664417
29566.1 0.191151
29567.0 0.0514353
29569.0 0.0133947
29572.9 0.00354471
29580.8 0.00102987
29596.5 0.000395157
29628.0 0.000244136
29690.9 0.000281464
29753.8 0.000771771
29785.2 0.00278268
29800.9 0.0106382
29804.9 0.0185670
29808.8 0.0404319
29810.8 0.0697858
29812.7 0.147497
29813.7 0.248040
29814.2 0.340563
29814.7 0.495893
29815.2 0.785900
29815.4 1.04119
29815.7 1.42053
29815.9 2.07631
29816.2 3.21322
29816.3 4.22809
29816.4 5.60105
29816.5 7.62758
29816.6 10.7041
29816.8 17.0551
29817.0 21.3788
29817.2 17.0548
29817.4 10.6740
29817.5 6.68501
29817.7 4.32376
29817.9 2.97012
29818.1 2.14681
29818.3 1.61645
29818.4 1.25758
29818.8 0.828966
29819.1 0.580482
29819.5 0.428471
29820.2 0.261989
29820.9 0.175529
29821.6 0.126236
29823.1 0.0742212
29825.9 0.0343623
29828.8 0.0197818
29834.5 0.00901404
29840.2 0.00515828
29851.6 0.00235435
29863.0 0.00136106
29885.8 0.000643737
29908.7 0.000389444
29954.3 0.000204169
30000.0 0.000136620
30000.0 0.102796
35000.0 0.0927697
40000.0 0.0850911
50000.0 0.0742037
60000.0 0.0679372
70000.0 0.0633767
80000.0 0.0599145
99999.9 0.0553543
100000 0.0551548
150000 0.0499950
200000 0.0481306
250000 0.0476581
300000 0.0479080
500000 0.0522686
600000 0.0556166
700000 0.0586140
800000 0.0625069
900000 0.0668874
1.00000E+06 0.0717342
1.12500E+06 0.0789290
1.25000E+06 0.0859743
1.30476E+06 0.0893962
1.40238E+06 0.0785406
1.50000E+06 0.0696073
1.62500E+06 0.0714493
1.75000E+06 0.0731981
1.77209E+06 0.0737649
1.88605E+06 0.0765115
2.00000E+06 0.0791903
2.04494E+06 0.0807197
2.04494E+06 0.0807198
2.13068E+06 0.0832095
2.13068E+06 0.0832094
2.24467E+06 0.0802963
2.28582E+06 0.0782211
2.28582E+06 0.0782209
2.38649E+06 0.0678762
2.38649E+06 0.0678761
2.41161E+06 0.0646586
2.41302E+06 0.0636237
2.51231E+06 0.0528489
2.55111E+06 0.0492503
2.55111E+06 0.0492502
2.56816E+06 0.0479891
2.67612E+06 0.0448813
2.78408E+06 0.0420861
2.89204E+06 0.0395616
3.00000E+06 0.0372730
3.09986E+06 0.0353837
3.19971E+06 0.0336457
3.29957E+06 0.0320426
3.39942E+06 0.0305603
3.54957E+06 0.0285324
3.69971E+06 0.0267150
3.84986E+06 0.0250789
4.00000E+06 0.0236000
4.06250E+06 0.0227070
4.12500E+06 0.0218607
4.18750E+06 0.0210580
4.25000E+06 0.0202960
4.31250E+06 0.0195720
4.37500E+06 0.0188838
4.43750E+06 0.0182290
4.50000E+06 0.0176057
4.56250E+06 0.0170118
4.62500E+06 0.0164456
4.68750E+06 0.0159054
4.75000E+06 0.0153899
4.81250E+06 0.0148974
4.87500E+06 0.0144268
4.93750E+06 0.0139767
5.00000E+06 0.0135461
5.06250E+06 0.0129441
5.12500E+06 0.0123757
5.18750E+06 0.0118388
5.25000E+06 0.0113312
5.31250E+06 0.0108509
5.37500E+06 0.0103963
5.43750E+06 0.00996563
5.50000E+06 0.00955744
5.56250E+06 0.00917030
5.62500E+06 0.00880291
5.68750E+06 0.00845406
5.75000E+06 0.00812262
5.81250E+06 0.00780755
5.87500E+06 0.00750788
5.93750E+06 0.00722270
6.00000E+06 0.00695117
6.06250E+06 0.00663768
6.12500E+06 0.00634133
6.18750E+06 0.00606102
6.25000E+06 0.00579573
6.31250E+06 0.00554453
6.37500E+06 0.00530653
6.43750E+06 0.00508092
6.50000E+06 0.00486694
6.56250E+06 0.00466389
6.62500E+06 0.00447113
6.68750E+06 0.00428802
6.75000E+06 0.00411402
6.81250E+06 0.00394858
6.87500E+06 0.00379122
6.93750E+06 0.00364147
7.00000E+06 0.00349890
7.02926E+06 0.00343089
7.08602E+06 0.00330349
7.14277E+06 0.00318177
7.19953E+06 0.00306545
7.25629E+06 0.00295425
7.31304E+06 0.00284790
7.36980E+06 0.00274616
7.42655E+06 0.00264879
7.48331E+06 0.00255558
7.54682E+06 0.00246621
7.61033E+06 0.00238068
7.67383E+06 0.00229878
7.73734E+06 0.00222035
7.80246E+06 0.00214333
7.86757E+06 0.00206960
7.93379E+06 0.00199781
8.00000E+06 0.00192908
8.10734E+06 0.00185128
8.21467E+06 0.00177758
8.32489E+06 0.00170589
8.43511E+06 0.00163798
8.48528E+06 0.00160825
8.61207E+06 0.00156269
8.73885E+06 0.00151906
8.86943E+06 0.00147603
9.00000E+06 0.00143482
9.04494E+06 0.00142874
9.08987E+06 0.00142271
9.13481E+06 0.00141674
9.17975E+06 0.00141082
9.22468E+06 0.00140495
9.26962E+06 0.00139914
9.31455E+06 0.00139338
9.35949E+06 0.00138767
9.42316E+06 0.00137966
9.48683E+06 0.00137176
9.52771E+06 0.00137221
9.56860E+06 0.00137265
9.60948E+06 0.00137309
9.65036E+06 0.00137354
9.71529E+06 0.00137423
9.78022E+06 0.00137493
9.84514E+06 0.00137561
9.91007E+06 0.00137630
9.95504E+06 0.00137677
1.00000E+07 0.00137724
1.00308E+07 0.00137040
1.00880E+07 0.00135785
1.01451E+07 0.00134548
1.02023E+07 0.00133330
1.02595E+07 0.00132129
1.03166E+07 0.00130946
1.03738E+07 0.00129780
1.04309E+07 0.00128630
1.04881E+07 0.00127497
1.05521E+07 0.00127039
1.06161E+07 0.00126586
1.06801E+07 0.00126137
1.07441E+07 0.00125692
1.08080E+07 0.00125251
1.08720E+07 0.00124815
1.09360E+07 0.00124382
1.10000E+07 0.00123954
1.10611E+07 0.00123260
1.11223E+07 0.00122574
1.11834E+07 0.00121896
1.12446E+07 0.00121225
1.13057E+07 0.00120561
1.13668E+07 0.00119905
1.14280E+07 0.00119255
1.14891E+07 0.00118613
1.15530E+07 0.00117949
1.16168E+07 0.00117292
1.16807E+07 0.00116643
1.17446E+07 0.00116001
1.18084E+07 0.00115366
1.18723E+07 0.00114737
1.19361E+07 0.00114116
1.20000E+07 0.00113501
1.20625E+07 0.00112981
1.21250E+07 0.00112466
1.21875E+07 0.00111956
1.22500E+07 0.00111450
1.23125E+07 0.00110950
1.23750E+07 0.00110454
1.24375E+07 0.00109963
1.25000E+07 0.00109477
1.25625E+07 0.00108995
1.26250E+07 0.00108518
1.26875E+07 0.00108045
1.27500E+07 0.00107577
1.28125E+07 0.00107112
1.28750E+07 0.00106652
1.29375E+07 0.00106197
1.30000E+07 0.00105745
1.30625E+07 0.00105460
1.31250E+07 0.00105177
1.31875E+07 0.00104896
1.32500E+07 0.00104617
1.33125E+07 0.00104340
1.33750E+07 0.00104065
1.34375E+07 0.00103792
1.35000E+07 0.00103521
1.35625E+07 0.00103252
1.36250E+07 0.00102985
1.36875E+07 0.00102720
1.37500E+07 0.00102457
1.38125E+07 0.00102195
1.38750E+07 0.00101936
1.39375E+07 0.00101678
1.40000E+07 0.00101422
1.40625E+07 0.00101323
1.41250E+07 0.00101224
1.41875E+07 0.00101126
1.42500E+07 0.00101029
1.43125E+07 0.00100932
1.43750E+07 0.00100835
1.44375E+07 0.00100739
1.45000E+07 0.00100644
1.45625E+07 0.00100549
1.46250E+07 0.00100454
1.46875E+07 0.00100360
1.47500E+07 0.00100267
1.48125E+07 0.00100174
1.48750E+07 0.00100081
1.49375E+07 0.000999890
1.50000E+07 0.000998974
1.51250E+07 0.000999619
1.52500E+07 0.00100026
1.53750E+07 0.00100089
1.55000E+07 0.00100152
1.56250E+07 0.00100215
1.57500E+07 0.00100277
1.58750E+07 0.00100339
1.60000E+07 0.00100400
1.61491E+07 0.00100707
1.63618E+07 0.00101143
1.65746E+07 0.00101574
1.67873E+07 0.00102002
1.70000E+07 0.00102426
1.72535E+07 0.00103246
1.72673E+07 0.00103291
1.76337E+07 0.00104465
1.80000E+07 0.00105629
1.85000E+07 0.00107741
1.90000E+07 0.00109837
2.00000E+07 0.00114903