La-139(n,g) ENDF/B-VII.1
Energy(eV) XS(b)
1.00000E-05 455.088
1.25000E-05 407.043
1.50000E-05 371.578
2.00000E-05 321.796
2.75000E-05 274.428
3.50000E-05 243.255
4.25000E-05 220.750
5.00000E-05 203.521
6.25000E-05 182.035
7.50000E-05 166.174
0.000100000 143.911
0.000125000 128.718
0.000150000 117.503
0.000200000 101.760
0.000275000 86.7810
0.000350000 76.9229
0.000425000 69.8062
0.000500000 64.3580
0.000625000 57.5633
0.000750000 52.5476
0.00100000 45.5071
0.00125000 40.7024
0.00150000 37.1557
0.00200000 32.1771
0.00275000 27.4400
0.00350000 24.3222
0.00425000 22.0714
0.00500000 20.3483
0.00625000 18.1992
0.00750000 16.6127
0.0100000 14.3857
0.0125000 12.8657
0.0150000 11.7436
0.0200000 10.1683
0.0253000 9.03892
0.0314750 8.10201
0.0376500 7.40613
0.0500000 6.42373
0.0625000 5.74287
0.0750000 5.24007
0.100000 4.53386
0.125000 4.05155
0.150000 3.69527
0.200000 3.19476
0.275000 2.71826
0.350000 2.40534
0.500000 2.01671
0.605750 1.88372
0.658625 1.95317
0.685063 2.18362
0.698281 2.48339
0.711500 3.09512
0.734000 4.55035
0.756500 3.08691
0.771719 2.37378
0.786938 2.03431
0.817375 1.74952
0.878250 1.55831
1.00000 1.40681
1.25000 1.23171
1.50000 1.11045
2.00000 0.941574
2.75000 0.779571
3.50000 0.671471
5.00000 0.531327
7.50000 0.396887
10.0000 0.315840
15.0000 0.220398
20.0000 0.165578
27.5000 0.117212
35.0000 0.0893674
42.5000 0.0733036
50.0000 0.0669343
55.5641 0.0716139
58.3462 0.0804868
61.1282 0.0995213
63.9103 0.143586
65.3013 0.188804
66.6923 0.272344
67.3878 0.343266
68.0833 0.452145
68.7788 0.631661
69.4744 0.959164
69.8221 1.23515
70.1699 1.65664
70.5176 2.34744
70.8654 3.59769
71.0393 4.64313
71.2131 6.22761
71.3870 8.79724
71.5609 13.3760
71.6478 17.1447
71.7348 22.7680
71.8217 31.6929
71.9087 47.1047
71.9521 59.3938
71.9956 77.1710
72.0391 104.227
72.0825 148.232
72.1260 226.542
72.1477 290.548
72.1695 384.750
72.1912 530.383
72.2129 768.326
72.2347 1180.50
72.2564 1914.94
72.2782 3062.75
72.3000 3826.98
72.3218 3061.24
72.3436 1913.33
72.3571 1409.07
72.3706 1056.26
72.3976 636.327
72.4246 417.172
72.4516 292.095
72.4787 215.010
72.5057 164.490
72.5597 104.834
72.6137 72.4441
72.6677 52.9836
72.7757 31.8180
72.8838 21.1834
72.9918 15.1048
73.0998 11.3098
73.2079 8.78366
73.4239 5.73644
73.6400 4.03938
73.8561 2.99867
74.0721 2.31503
74.5043 1.50137
74.9364 1.05426
75.3685 0.782603
75.8007 0.605348
76.6649 0.395807
77.5292 0.281396
78.3934 0.212143
79.2577 0.167041
80.9862 0.113724
82.7148 0.0844971
86.1718 0.0548983
89.6289 0.0406585
93.0859 0.0325012
100.000 0.0235752
112.500 0.0160910
125.000 0.0122249
150.000 0.00803126
175.000 0.00574868
200.000 0.00433002
224.090 0.00342128
236.135 0.00311920
242.158 0.00316886
245.169 0.00391543
246.674 0.00711587
247.051 0.0104123
247.427 0.0196574
247.615 0.0322712
247.804 0.0668613
247.898 0.112778
247.945 0.156858
247.992 0.233551
248.039 0.385791
248.062 0.524747
248.086 0.754592
248.109 1.17657
248.121 1.53137
248.133 2.06321
248.145 2.92279
248.156 4.38858
248.168 7.14533
248.180 12.5111
248.190 20.0514
248.200 25.0102
248.210 19.9726
248.220 12.5121
248.231 7.30907
248.242 4.59491
248.254 3.08841
248.265 2.20578
248.276 1.64311
248.287 1.27114
248.309 0.823072
248.332 0.574282
248.354 0.423700
248.398 0.257626
248.443 0.173321
248.487 0.124805
248.576 0.0740386
248.754 0.0356412
248.932 0.0216029
249.288 0.0112772
249.645 0.00757677
251.069 0.00392130
253.918 0.00293650
259.615 0.00258529
271.010 0.00231412
293.800 0.00195227
316.590 0.00168992
327.985 0.00162463
333.683 0.00176754
336.531 0.00251873
337.956 0.00556505
338.312 0.00868260
338.668 0.0174059
338.846 0.0292907
339.024 0.0617857
339.113 0.104785
339.202 0.217347
339.246 0.358163
339.269 0.486616
339.291 0.697010
339.313 1.07977
339.324 1.39680
339.335 1.87147
339.347 2.63041
339.358 3.90315
339.369 6.21247
339.380 10.5841
339.390 16.9547
339.400 21.1407
339.410 16.8880
339.420 10.5848
339.430 6.56257
339.440 4.30627
339.450 2.98999
339.459 2.17842
339.479 1.28991
339.499 0.847053
339.518 0.597132
339.538 0.443031
339.577 0.271335
339.655 0.131957
339.734 0.0780584
339.891 0.0369935
340.047 0.0218811
340.361 0.0107286
340.675 0.00672570
341.929 0.00278073
344.438 0.00175681
349.456 0.00146375
359.493 0.00132678
379.565 0.00118405
419.710 0.000988177
500.000 0.000784212
529.339 0.000778824
558.678 0.000881127
573.347 0.00106699
580.682 0.00126301
588.017 0.00162974
595.351 0.00242754
599.019 0.00323060
602.686 0.00470696
604.520 0.00596011
606.353 0.00788720
608.187 0.0110749
610.021 0.0169214
610.938 0.0218758
611.854 0.0294825
612.771 0.0420420
613.688 0.0650101
614.147 0.0844197
614.605 0.114131
615.063 0.162982
615.522 0.251789
615.751 0.326361
615.980 0.439837
616.209 0.624851
616.439 0.957063
616.553 1.23256
616.668 1.64663
616.782 2.31038
616.897 3.47302
617.012 5.79255
617.069 7.93070
617.126 11.5001
617.183 18.1069
617.212 23.7411
617.241 32.3521
617.269 46.4774
617.298 71.4056
617.312 91.5613
617.327 120.141
617.341 161.623
617.355 221.596
617.378 354.862
617.400 443.168
617.422 354.207
617.445 221.573
617.466 140.806
617.486 93.7373
617.507 65.7394
617.528 48.3009
617.569 28.8768
617.611 19.0667
617.652 13.4747
617.694 10.0178
617.777 6.14569
617.860 4.14459
617.943 2.98222
618.026 2.24686
618.109 1.75362
618.275 1.15276
618.441 0.815012
618.607 0.606544
618.773 0.468991
619.106 0.304320
619.438 0.213363
619.770 0.157862
620.102 0.121548
620.766 0.0784692
621.431 0.0548783
622.095 0.0405741
622.759 0.0312530
624.088 0.0202477
625.417 0.0142477
626.745 0.0106212
628.074 0.00826375
630.731 0.00548764
633.388 0.00397840
636.046 0.00306853
638.703 0.00247864
644.018 0.00178746
649.332 0.00141636
659.961 0.00106552
670.590 0.000949845
681.219 0.00102741
691.848 0.00190881
694.506 0.00287120
697.163 0.00563528
698.491 0.00950038
699.820 0.0204837
700.484 0.0357387
700.817 0.0509704
701.149 0.0787634
701.481 0.138003
701.647 0.196687
701.813 0.302785
701.896 0.391546
701.979 0.525796
702.062 0.743488
702.145 1.13006
702.187 1.44827
702.228 1.92083
702.270 2.66801
702.311 3.95099
702.353 6.43146
702.374 8.64848
702.394 12.1993
702.415 18.4519
702.436 30.7088
702.446 41.7362
702.457 59.2764
702.467 88.5400
702.477 137.657
702.489 220.475
702.500 275.782
702.511 220.477
702.523 137.660
702.533 87.4619
702.544 58.2227
702.555 40.8332
702.565 30.0430
702.586 17.9771
702.607 11.8770
702.628 8.40367
702.650 6.24913
702.692 3.83504
702.734 2.58595
702.776 1.86127
702.818 1.40312
702.861 1.09533
702.945 0.720158
703.030 0.509477
703.114 0.379256
703.198 0.293380
703.367 0.190551
703.536 0.133723
703.874 0.0763646
704.212 0.0494336
704.550 0.0346771
705.225 0.0198923
706.576 0.00923615
707.927 0.00547850
710.629 0.00277771
713.331 0.00182536
724.140 0.000892542
745.757 0.000648490
788.991 0.000622162
810.609 0.000677374
832.226 0.000837652
843.034 0.00104863
848.439 0.00125352
853.843 0.00162213
859.247 0.00240251
861.949 0.00317781
864.651 0.00459366
866.003 0.00579112
867.354 0.00762880
868.705 0.0106634
870.056 0.0162202
871.407 0.0281406
872.082 0.0400417
872.758 0.0617779
873.433 0.108168
873.771 0.154204
874.109 0.237648
874.278 0.307548
874.447 0.413641
874.616 0.586000
874.784 0.893622
874.869 1.14765
874.953 1.52699
875.038 2.13140
875.122 3.17775
875.207 5.23331
875.249 7.09223
875.291 10.1342
875.333 15.5972
875.354 20.1027
875.376 26.7979
875.397 37.2722
875.418 54.6913
875.439 85.6094
875.460 142.465
875.480 228.069
875.500 284.717
875.520 227.608
875.540 142.456
875.555 99.6145
875.569 71.6466
875.584 53.2105
875.598 40.7391
875.627 25.7335
875.656 17.6058
875.685 12.7407
875.714 9.63598
875.773 6.04303
875.831 4.13388
875.889 3.00260
875.947 2.27843
876.005 1.78814
876.121 1.18427
876.237 0.841761
876.353 0.628736
876.469 0.487535
876.702 0.317626
876.934 0.223333
877.166 0.165619
877.399 0.127751
877.863 0.0827221
878.328 0.0580039
878.793 0.0429889
879.257 0.0331962
880.187 0.0216231
881.116 0.0153113
882.045 0.0114996
882.974 0.00902730
884.833 0.00613428
886.692 0.00459100
890.409 0.00317091
894.126 0.00279082
897.843 0.00338553
899.701 0.00462783
901.560 0.00842313
902.489 0.0138017
903.419 0.0291063
903.883 0.0503123
904.348 0.109781
904.580 0.191028
904.696 0.270999
904.812 0.414439
904.929 0.712315
904.987 0.998973
905.045 1.49977
905.103 2.49933
905.132 3.42186
905.161 4.95498
905.190 7.79847
905.205 10.2064
905.219 13.8903
905.234 19.8900
905.248 30.4609
905.263 50.8879
905.270 68.3408
905.277 93.0847
905.289 148.942
905.300 186.183
905.312 148.943
905.323 93.0861
905.330 68.6296
905.337 51.6865
905.351 31.3625
905.365 20.6601
905.379 14.5141
905.393 10.6881
905.407 8.19389
905.435 5.23751
905.463 3.62258
905.491 2.65411
905.547 1.59659
905.604 1.06441
905.660 0.759836
905.772 0.442713
905.884 0.289629
905.996 0.204269
906.221 0.117443
906.669 0.0537704
907.118 0.0310342
908.016 0.0145687
908.913 0.00873666
910.708 0.00452700
912.503 0.00303402
919.683 0.00157468
926.863 0.00134597
934.043 0.00137554
941.223 0.00162926
944.813 0.00191824
948.403 0.00246252
951.993 0.00364393
953.788 0.00482988
955.583 0.00700602
957.378 0.0116839
958.276 0.0163642
959.173 0.0249321
960.071 0.0432818
960.519 0.0615662
960.968 0.0948636
961.417 0.165609
961.641 0.235459
961.866 0.361306
961.978 0.466115
962.090 0.624260
962.202 0.879117
962.314 1.32901
962.370 1.69574
962.427 2.23769
962.483 3.08660
962.539 4.52474
962.595 7.24746
962.623 9.62529
962.651 13.3494
962.679 19.6760
962.693 24.5741
962.707 31.4399
962.721 41.3835
962.735 56.2884
962.749 79.2948
962.763 114.932
962.782 183.761
962.800 229.592
962.819 183.756
962.837 114.927
962.855 71.2869
962.873 46.7055
962.892 32.3294
962.910 23.5374
962.928 17.7935
962.946 13.9033
962.982 9.11339
963.019 6.41459
963.055 4.75237
963.127 2.90235
963.200 1.95279
963.273 1.40250
963.345 1.05565
963.418 0.823403
963.563 0.540754
963.708 0.382168
963.853 0.284409
963.998 0.219970
964.289 0.142889
964.579 0.100353
965.160 0.0574531
965.740 0.0373362
966.321 0.0263228
967.482 0.0152993
968.644 0.0101673
969.805 0.00737154
972.128 0.00458808
974.451 0.00330244
976.773 0.00260874
981.419 0.00193225
990.709 0.00149113
1000.00 0.00138991
1022.20 0.00149916
1044.40 0.00184747
1066.60 0.00247965
1088.81 0.00366121
1099.91 0.00466305
1111.01 0.00619661
1122.11 0.00871492
1133.21 0.0132837
1138.76 0.0171145
1144.31 0.0229356
1149.86 0.0324135
1155.41 0.0494074
1158.19 0.0634908
1160.96 0.0846354
1163.74 0.118500
1166.51 0.177763
1167.90 0.225678
1169.29 0.295857
1170.67 0.404656
1172.06 0.585983
1173.45 0.921431
1174.14 1.20659
1174.84 1.64272
1175.53 2.35526
1176.22 3.61439
1176.57 4.62265
1176.92 6.05836
1177.26 8.13797
1177.61 11.1268
1178.16 17.7871
1178.70 22.2123
1179.25 17.7660
1179.79 11.1065
1180.23 7.47314
1180.67 5.20359
1181.11 3.76796
1181.55 2.83168
1182.43 1.74523
1183.31 1.17456
1184.19 0.841069
1185.08 0.630741
1186.84 0.391500
1188.60 0.266078
1190.36 0.192509
1192.12 0.145739
1193.88 0.114268
1197.41 0.0760871
1200.93 0.0556293
1204.45 0.0494550
1205.33 0.0544278
1206.21 0.0733766
1206.65 0.101712
1207.09 0.182648
1207.31 0.293454
1207.42 0.402120
1207.53 0.596221
1207.64 0.995330
1207.70 1.37538
1207.75 2.03298
1207.81 3.31963
1207.84 4.50749
1207.86 6.37614
1207.89 9.85018
1207.91 12.7340
1207.92 16.6713
1207.93 23.2353
1207.95 34.1965
1207.96 53.7469
1207.97 88.1415
1207.99 142.220
1208.00 176.556
1208.01 142.219
1208.03 88.1419
1208.04 57.6565
1208.05 38.6392
1208.06 27.2195
1208.07 20.0348
1208.10 12.0206
1208.12 8.08381
1208.15 5.71727
1208.17 4.30183
1208.22 2.66318
1208.26 1.81189
1208.31 1.31466
1208.40 0.787391
1208.50 0.526507
1208.59 0.381372
1208.78 0.232009
1209.16 0.120692
1209.53 0.0802417
1210.29 0.0500458
1211.04 0.0385867
1212.55 0.0290240
1214.06 0.0245216
1220.09 0.0163757
1226.12 0.0123325
1232.15 0.00981243
1238.18 0.00823482
1244.21 0.00763515
1247.23 0.00812802
1250.24 0.0105907
1251.75 0.0144661
1253.26 0.0258553
1254.01 0.0418442
1254.76 0.0870572
1255.14 0.149284
1255.33 0.211073
1255.52 0.322118
1255.71 0.556245
1255.80 0.782950
1255.90 1.18428
1255.94 1.51235
1255.99 1.99855
1256.04 2.76304
1256.08 4.06541
1256.13 6.55281
1256.15 8.79880
1256.18 12.2155
1256.20 18.3550
1256.22 29.5934
1256.24 39.7544
1256.25 55.5624
1256.26 81.1588
1256.27 122.195
1256.29 195.985
1256.30 244.222
1256.31 195.984
1256.33 122.195
1256.34 83.9265
1256.35 60.8288
1256.36 44.2405
1256.37 34.1452
1256.39 21.4291
1256.41 14.8307
1256.43 10.6784
1256.45 8.03923
1256.49 5.06499
1256.54 3.44726
1256.58 2.51326
1256.62 1.90095
1256.66 1.49609
1256.74 0.991589
1256.83 0.705483
1256.99 0.409997
1257.16 0.268405
1257.32 0.189811
1257.66 0.110153
1258.32 0.0519961
1258.98 0.0312598
1260.31 0.0162066
1261.64 0.0108169
1264.30 0.00679798
1266.95 0.00525468
1272.26 0.00392875
1277.57 0.00328084
1288.19 0.00254783
1298.82 0.00209733
1320.06 0.00154084
1341.30 0.00121050
1383.79 0.000869540
1405.04 0.000852197
1415.66 0.00109745
1420.97 0.00200338
1423.62 0.00519287
1424.95 0.0171073
1425.62 0.0624405
1425.78 0.107602
1425.95 0.230363
1426.03 0.391605
1426.11 0.808998
1426.16 1.33267
1426.20 2.53630
1426.22 3.88820
1426.24 6.44267
1426.25 9.00675
1426.26 12.7896
1426.27 19.1079
1426.28 30.1565
1426.29 48.1180
1426.30 60.4080
1426.31 48.1182
1426.32 30.1569
1426.33 22.7541
1426.34 16.8475
1426.35 10.3039
1426.36 6.82379
1426.37 4.81151
1426.40 2.73402
1426.43 1.75208
1426.48 0.891697
1426.53 0.537982
1426.63 0.257294
1426.74 0.150689
1426.95 0.0704644
1427.15 0.0412721
1427.99 0.0126212
1429.65 0.00746053
1431.31 0.0186262
1431.73 0.0313032
1432.15 0.0671297
1432.35 0.116109
1432.56 0.250523
1432.67 0.429039
1432.77 0.898864
1432.82 1.49059
1432.85 2.03201
1432.87 2.92846
1432.90 4.56695
1432.91 5.94288
1432.93 8.02464
1432.94 11.3624
1432.95 17.1084
1432.97 27.8231
1432.98 48.1703
1432.99 77.4639
1433.00 96.2944
1433.01 77.4642
1433.02 48.1708
1433.04 27.8236
1433.05 17.7093
1433.06 11.6983
1433.07 8.43736
1433.09 6.20786
1433.10 4.83960
1433.12 3.11745
1433.15 2.16950
1433.17 1.59468
1433.22 0.964121
1433.32 0.461333
1433.42 0.269633
1433.62 0.124923
1433.82 0.0722146
1434.22 0.0332394
1434.62 0.0193129
1436.22 0.00555200
1439.41 0.00195140
1445.80 0.000969607
1458.58 0.000674956
1484.13 0.000561080
1535.24 0.000507805
1586.35 0.000569659
1611.90 0.000866501
1624.68 0.00194728
1631.07 0.00599993
1632.67 0.0100994
1634.26 0.0216216
1635.06 0.0375130
1635.86 0.0818882
1636.26 0.142568
1636.46 0.202262
1636.66 0.308703
1636.86 0.530187
1636.96 0.743097
1637.06 1.11045
1637.16 1.84569
1637.21 2.52032
1637.26 3.64080
1637.31 5.69840
1637.33 7.43477
1637.36 10.0749
1637.38 14.3372
1637.41 21.7484
1637.43 35.7745
1637.46 62.9168
1637.48 100.291
1637.50 125.858
1637.52 100.289
1637.54 62.9159
1637.56 44.7439
1637.57 32.8394
1637.58 24.7812
1637.60 19.2104
1637.63 12.1921
1637.66 8.45463
1637.68 6.11930
1637.71 4.66587
1637.77 2.93974
1637.83 2.01701
1637.88 1.46812
1638.00 0.879991
1638.11 0.583589
1638.22 0.416318
1638.45 0.241971
1638.68 0.158170
1638.90 0.111574
1639.36 0.0642992
1640.27 0.0298254
1641.17 0.0176498
1642.99 0.00919290
1644.81 0.00688328
1648.44 0.0115388
1649.35 0.0183891
1650.26 0.0382712
1650.71 0.0659035
1651.17 0.143231
1651.39 0.248403
1651.51 0.352003
1651.62 0.535414
1651.73 0.916542
1651.79 1.28123
1651.85 1.90078
1651.90 3.13587
1651.93 4.28204
1651.96 6.09852
1651.99 9.50096
1652.00 12.2312
1652.02 16.2801
1652.03 22.5970
1652.05 33.0631
1652.06 51.5477
1652.07 85.6642
1652.09 138.931
1652.10 171.409
1652.11 138.931
1652.13 85.6645
1652.14 59.2363
1652.15 40.9391
1652.16 29.4776
1652.17 22.5977
1652.19 13.7640
1652.21 9.34183
1652.23 6.63561
1652.26 5.00874
1652.30 3.13618
1652.34 2.12623
1652.38 1.54575
1652.47 0.916640
1652.55 0.605901
1652.64 0.430131
1652.81 0.249007
1653.15 0.114154
1653.49 0.0656545
1654.17 0.0302245
1654.85 0.0176140
1657.57 0.00516810
1663.02 0.00186303
1673.91 0.000919384
1695.69 0.000642837
1739.25 0.000610063
1782.82 0.000697114
1804.60 0.000827901
1815.49 0.00115803
1820.93 0.00235364
1823.66 0.00702755
1825.02 0.0253254
1825.36 0.0439811
1825.70 0.0958072
1825.87 0.165961
1826.04 0.356173
1826.12 0.605111
1826.21 1.24604
1826.25 2.04458
1826.29 3.86526
1826.31 5.95411
1826.34 9.94941
1826.35 13.7616
1826.36 19.2973
1826.37 29.5825
1826.38 46.9218
1826.39 75.6859
1826.40 93.9976
1826.41 75.6861
1826.42 46.9222
1826.43 28.3862
1826.45 18.6176
1826.46 12.9294
1826.47 9.42329
1826.49 5.58322
1826.51 3.66745
1826.56 1.91766
1826.60 1.17313
1826.69 0.568118
1826.78 0.333942
1826.95 0.154855
1827.13 0.0894402
1827.48 0.0410314
1827.83 0.0237057
1829.24 0.00663595
1832.06 0.00229552
1837.70 0.00122111
1848.99 0.00100014
1871.55 0.00107602
1894.11 0.00133667
1905.40 0.00186316
1911.04 0.00360983
1913.86 0.0103282
1915.27 0.0365708
1915.62 0.0632837
1915.97 0.137399
1916.15 0.238413
1916.32 0.511141
1916.41 0.867809
1916.46 1.20525
1916.50 1.78500
1916.54 2.90690
1916.57 3.90766
1916.59 5.52008
1916.61 8.34973
1916.63 13.9397
1916.64 18.9617
1916.65 26.9677
1916.67 40.3738
1916.68 63.8257
1916.69 101.733
1916.70 127.557
1916.71 101.733
1916.72 63.8261
1916.74 37.3718
1916.75 23.5922
1916.76 15.5184
1916.78 11.1401
1916.79 8.17932
1916.80 6.35817
1916.83 4.14409
1916.86 2.87106
1916.88 2.10355
1916.94 1.27685
1916.99 0.850289
1917.04 0.610032
1917.15 0.357798
1917.36 0.165860
1917.58 0.0956788
1918.00 0.0441232
1918.43 0.0256830
1920.13 0.00761038
1923.54 0.00305921
1930.36 0.00199999
1944.00 0.00196680
1957.64 0.00241668
1964.46 0.00349449
1967.87 0.00725569
1969.57 0.0217660
1970.00 0.0365158
1970.42 0.0776922
1970.64 0.133668
1970.85 0.286470
1970.96 0.489600
1971.06 1.01445
1971.12 1.68336
1971.14 2.29579
1971.17 3.26149
1971.20 5.06940
1971.22 8.64485
1971.24 12.2864
1971.25 17.9843
1971.26 28.0541
1971.28 46.6631
1971.29 75.6555
1971.30 93.1672
1971.31 75.6555
1971.32 46.6634
1971.34 27.0466
1971.35 16.8945
1971.37 11.3422
1971.38 8.07124
1971.41 4.63804
1971.44 2.99143
1971.47 2.08382
1971.49 1.53292
1971.55 0.928007
1971.66 0.445108
1971.77 0.260819
1972.00 0.121629
1972.22 0.0707583
1972.67 0.0334036
1973.12 0.0200514
1974.91 0.00699928
1978.49 0.00378267
1985.66 0.00320195
2000.00 0.00366131
2014.25 0.00458222
2028.50 0.00601924
2042.75 0.00835893
2057.00 0.0125337
2064.13 0.0159805
2071.25 0.0211511
2078.38 0.0294408
2085.50 0.0440229
2089.06 0.0559036
2092.63 0.0734806
2096.19 0.101125
2099.75 0.148309
2101.53 0.185581
2103.31 0.239001
2105.09 0.319408
2106.88 0.448277
2108.66 0.673017
2109.55 0.852913
2110.44 1.11224
2111.33 1.50288
2112.22 2.11799
2113.11 3.13338
2114.00 4.83243
2115.00 7.72173
2116.00 9.64169
2117.00 7.71318
2118.00 4.82504
2119.04 2.92068
2120.08 1.87836
2121.12 1.28733
2122.15 0.931128
2123.19 0.702878
2124.23 0.549448
2126.31 0.364004
2128.38 0.261990
2130.46 0.201466
2134.61 0.141853
2138.77 0.129393
2140.84 0.140883
2142.92 0.173229
2145.00 0.251510
2146.04 0.330105
2147.07 0.469163
2148.11 0.746193
2148.63 0.998847
2149.15 1.41485
2149.67 2.16767
2149.93 2.79446
2150.19 3.72866
2150.45 5.20958
2150.71 7.69452
2150.97 12.2049
2151.23 20.6677
2151.46 33.0363
2151.70 41.2729
2151.94 33.0264
2152.17 20.6574
2152.36 13.9577
2152.55 9.74717
2152.74 7.08127
2152.93 5.33419
2153.31 3.30432
2153.69 2.23639
2154.07 1.60989
2154.45 1.21415
2155.21 0.763310
2155.97 0.526004
2156.73 0.386388
2158.25 0.236813
2159.77 0.162349
2161.29 0.119851
2164.32 0.0753604
2167.36 0.0537922
2170.40 0.0427506
2171.92 0.0407147
2173.44 0.0440594
2174.20 0.0522297
2174.95 0.0782676
2175.33 0.115459
2175.71 0.219696
2175.90 0.361314
2176.09 0.744751
2176.19 1.24495
2176.24 1.72332
2176.28 2.52553
2176.33 4.10615
2176.36 5.51903
2176.38 7.67842
2176.40 11.5855
2176.43 18.8144
2176.44 25.4249
2176.45 35.8318
2176.46 52.9519
2176.47 80.9317
2176.49 128.051
2176.50 162.062
2176.51 128.051
2176.53 80.9318
2176.54 51.1637
2176.55 34.7606
2176.57 24.1151
2176.58 17.9579
2176.60 10.7556
2176.63 7.11354
2176.65 5.03989
2176.68 3.75369
2176.73 2.31273
2176.78 1.56857
2176.83 1.13561
2176.93 0.678116
2177.13 0.328291
2177.33 0.199497
2177.73 0.103391
2178.13 0.0686117
2178.92 0.0426744
2179.72 0.0328951
2181.32 0.0248389
2182.92 0.0211237
2189.31 0.0145845
2202.09 0.00920703
2214.88 0.00655564
2227.66 0.00498539
2253.22 0.00327233
2278.79 0.00242207
2304.35 0.00198302
2329.92 0.00182730
2342.70 0.00188989
2355.48 0.00220597
2361.88 0.00266927
2365.07 0.00313040
2368.27 0.00396848
2371.46 0.00575529
2373.06 0.00753542
2374.66 0.0107860
2376.26 0.0177499
2377.06 0.0246961
2377.85 0.0373745
2378.65 0.0644057
2379.45 0.139762
2379.85 0.242193
2380.05 0.342457
2380.25 0.520219
2380.45 0.886714
2380.55 1.23547
2380.65 1.83046
2380.75 3.00028
2380.80 4.05319
2380.85 5.76589
2380.90 8.81384
2380.93 11.3041
2380.95 14.9700
2380.98 20.6322
2381.00 29.8794
2381.03 45.8704
2381.05 73.5272
2381.08 118.123
2381.10 147.082
2381.13 118.120
2381.15 73.5246
2381.17 48.4840
2381.19 32.9323
2381.22 23.4266
2381.24 17.5885
2381.28 10.7292
2381.32 7.17324
2381.37 5.11613
2381.41 3.82618
2381.50 2.36599
2381.58 1.60453
2381.67 1.15873
2381.75 0.875748
2381.84 0.685060
2382.01 0.451140
2382.18 0.320142
2382.36 0.239056
2382.53 0.185416
2382.87 0.120973
2383.22 0.0854224
2383.56 0.0636515
2383.91 0.0494352
2384.60 0.0325371
2385.28 0.0232793
2386.66 0.0140176
2388.04 0.00971045
2389.42 0.00737576
2392.17 0.00507854
2394.93 0.00405376
2397.68 0.00353895
2403.19 0.00314509
2414.21 0.00333792
2425.23 0.00435474
2430.74 0.00531229
2436.25 0.00681967
2441.77 0.00933500
2447.28 0.0139439
2450.03 0.0178303
2452.79 0.0237558
2455.54 0.0334389
2458.30 0.0508743
2459.67 0.0653769
2461.05 0.0872126
2462.43 0.122359
2463.81 0.184178
2464.50 0.234459
2465.18 0.308568
2465.87 0.424235
2466.56 0.618814
2466.91 0.770662
2467.25 0.984632
2467.60 1.30128
2467.94 1.79318
2468.28 2.61776
2468.63 4.12300
2468.80 5.37104
2468.97 7.20744
2469.14 9.97698
2469.32 14.1560
2469.56 22.6613
2469.80 28.3344
2470.04 22.6557
2470.28 14.1506
2470.48 9.58795
2470.67 6.72063
2470.86 4.89457
2471.05 3.69231
2471.43 2.28878
2471.81 1.54556
2472.20 1.10886
2472.58 0.833350
2473.34 0.518694
2474.11 0.353076
2474.87 0.255756
2475.64 0.193745
2476.40 0.151844
2477.93 0.100493
2479.46 0.0714709
2480.99 0.0534707
2482.51 0.0415595
2485.57 0.0272601
2488.63 0.0193352
2491.68 0.0144906
2494.74 0.0113148
2500.86 0.00754141
2506.97 0.00547145
2513.08 0.00421501
2519.20 0.00339607
2531.43 0.00243083
2543.66 0.00190914
2568.11 0.00140949
2592.57 0.00122277
2617.02 0.00122486
2629.25 0.00134151
2641.48 0.00172536
2647.60 0.00227173
2650.65 0.00282030
2653.71 0.00382665
2656.77 0.00598925
2658.30 0.00815355
2659.82 0.0121127
2661.35 0.0205978
2662.12 0.0290467
2662.88 0.0444342
2663.65 0.0771764
2664.41 0.167695
2664.79 0.289299
2664.98 0.407151
2665.17 0.615174
2665.36 1.03528
2665.46 1.43031
2665.56 2.09242
2665.65 3.35995
2665.70 4.46817
2665.75 6.16981
2665.79 9.10547
2665.82 11.3916
2665.84 14.6050
2665.87 19.2748
2665.89 26.3025
2665.91 37.1973
2665.94 53.3584
2665.97 85.8363
2666.00 106.665
2666.03 85.8344
2666.06 53.3564
2666.09 37.1956
2666.11 26.6648
2666.13 19.7531
2666.16 15.0940
2666.20 9.43660
2666.25 6.45299
2666.30 4.64320
2666.34 3.51368
2666.43 2.19720
2666.53 1.50039
2666.62 1.08854
2666.71 0.825383
2666.81 0.647200
2666.99 0.428473
2667.18 0.304494
2667.36 0.227533
2667.55 0.176742
2667.92 0.115341
2668.29 0.0812843
2669.04 0.0468255
2669.78 0.0305794
2670.52 0.0216739
2672.01 0.0127309
2673.50 0.00855861
2674.98 0.00628212
2677.96 0.00401232
2680.93 0.00296206
2683.91 0.00239441
2689.85 0.00183935
2701.75 0.00147465
2713.65 0.00138882
2737.44 0.00144699
2761.23 0.00165905
2785.02 0.00205281
2808.81 0.00287521
2820.71 0.00378037
2826.66 0.00459282
2832.61 0.00598686
2838.55 0.00882585
2844.50 0.0165491
2847.48 0.0270242
2848.96 0.0373517
2850.45 0.0559949
2851.19 0.0715684
2851.94 0.0951065
2852.68 0.133265
2853.42 0.201004
2853.80 0.256690
2854.17 0.339600
2854.54 0.470795
2854.91 0.695536
2855.28 1.13158
2855.47 1.52080
2855.66 2.14830
2855.84 3.25046
2855.93 4.13903
2856.03 5.43028
2856.12 7.39047
2856.21 10.5173
2856.31 15.7541
2856.40 24.5707
2856.50 39.3362
2856.60 49.1890
2856.70 39.3329
2856.80 24.5675
2856.92 14.0576
2857.04 8.71153
2857.15 5.80014
2857.27 4.11533
2857.39 3.05118
2857.50 2.35193
2857.73 1.51507
2857.97 1.05338
2858.20 0.774090
2858.66 0.468833
2859.13 0.314140
2859.60 0.225545
2860.06 0.169954
2860.53 0.132954
2861.46 0.0881763
2862.39 0.0631933
2863.32 0.0478613
2864.25 0.0377899
2866.11 0.0258217
2867.97 0.0192781
2871.70 0.0128053
2875.42 0.00990883
2879.15 0.00845164
2886.59 0.00732560
2901.49 0.00769611
2916.38 0.00981725
2931.28 0.0140647
2938.73 0.0175830
2946.18 0.0227657
2953.62 0.0308066
2961.07 0.0442354
2964.79 0.0546529
2968.52 0.0695719
2972.24 0.0942899
2974.10 0.124783
2974.57 0.145669
2975.04 0.196747
2975.27 0.262369
2975.50 0.434820
2975.62 0.659390
2975.73 1.22566
2975.79 1.90819
2975.85 3.46699
2975.88 5.11667
2975.91 8.28455
2975.92 11.1646
2975.94 15.3197
2975.95 22.4972
2975.97 33.8863
2975.98 54.4802
2976.00 67.6960
2976.02 54.4802
2976.03 33.8869
2976.05 21.8978
2976.07 14.6085
2976.08 10.2730
2976.10 7.56420
2976.13 4.56245
2976.16 3.08503
2976.22 1.68647
2976.29 1.08460
2976.41 0.592288
2976.54 0.401368
2976.79 0.256697
2977.04 0.205470
2977.55 0.171587
2978.05 0.163887
2980.07 0.182030
2982.09 0.223428
2984.11 0.284297
2986.13 0.373538
2988.15 0.507878
2990.17 0.716014
2992.19 1.03918
2994.85 1.66093
2997.50 2.07338
3000.16 1.65703
3002.81 1.03531
3004.70 0.728922
3006.60 0.526215
3008.49 0.391876
3010.38 0.300706
3014.17 0.190820
3017.96 0.130831
3021.74 0.0949350
3025.53 0.0719074
3033.10 0.0452632
3040.68 0.0310858
3048.25 0.0226810
3055.82 0.0173020
3063.40 0.0136584
3078.54 0.00919226
3093.69 0.00667967
3108.83 0.00516681
3116.41 0.00473709
3120.19 0.00498252
3122.09 0.00677062
3123.03 0.0141220
3123.51 0.0422026
3123.74 0.144059
3123.86 0.475040
3123.92 1.36556
3123.95 3.17609
3123.97 5.61588
3123.98 10.7547
3123.99 17.4687
3124.00 21.5055
3124.01 17.4687
3124.02 10.7548
3124.04 4.58062
3124.06 2.31090
3124.10 0.895789
3124.18 0.290583
3124.34 0.0852321
3124.66 0.0256904
3125.29 0.00963299
3126.56 0.00541306
3129.11 0.00423164
3134.19 0.00374399
3144.36 0.00331766
3164.70 0.00284015
3185.04 0.00266105
3205.38 0.00280285
3225.72 0.00352369
3235.89 0.00436886
3246.06 0.00598654
3251.15 0.00737399
3256.23 0.00950458
3261.32 0.0130006
3266.40 0.0193061
3271.49 0.0324387
3274.03 0.0451118
3276.57 0.0673469
3277.85 0.0853799
3279.12 0.111856
3280.39 0.152998
3281.02 0.182705
3281.66 0.221904
3282.30 0.275249
3282.93 0.350226
3283.57 0.460055
3284.20 0.629166
3284.84 0.908181
3285.47 1.40726
3285.79 1.81305
3286.11 2.39851
3286.43 3.26024
3286.74 4.52060
3287.22 7.23385
3287.70 9.04222
3288.18 7.23115
3288.66 4.51799
3289.19 2.63973
3289.72 1.65341
3290.25 1.11209
3290.78 0.792906
3291.32 0.591030
3291.85 0.456460
3292.91 0.294943
3293.97 0.205726
3295.04 0.151587
3297.16 0.0920675
3299.29 0.0618817
3301.42 0.0445207
3303.55 0.0336348
3305.67 0.0263678
3309.93 0.0175664
3314.18 0.0126468
3318.43 0.00962065
3322.69 0.00762884
3331.19 0.00525369
3339.70 0.00394929
3356.71 0.00265843
3373.73 0.00210576
3390.74 0.00190777
3407.76 0.00211570
3416.26 0.00309485
3420.52 0.00672228
3422.64 0.0207625
3423.71 0.0749407
3423.97 0.129314
3424.24 0.278196
3424.37 0.475518
3424.51 0.993318
3424.57 1.65011
3424.64 3.21278
3424.67 4.97028
3424.70 8.61599
3424.72 12.2033
3424.74 17.8938
3424.75 28.8768
3424.77 48.3552
3424.79 77.2999
3424.80 96.5684
3424.82 77.2997
3424.83 48.3552
3424.85 28.8770
3424.86 18.3651
3424.88 12.4777
3424.89 9.12753
3424.93 5.27587
3424.96 3.45566
3425.02 1.78591
3425.08 1.08587
3425.21 0.522902
3425.33 0.307955
3425.58 0.143713
3425.84 0.0834162
3426.84 0.0231038
3428.85 0.00752890
3432.87 0.00372206
3436.88 0.00321562
3440.90 0.00328928
3444.92 0.00367885
3448.94 0.00455151
3452.96 0.00764261
3454.97 0.0177237
3455.97 0.0553540
3456.47 0.195880
3456.60 0.333207
3456.72 0.691306
3456.79 1.14552
3456.85 2.25365
3456.88 3.55073
3456.91 6.21912
3456.93 8.89610
3456.94 13.2081
3456.96 21.8249
3456.97 29.0208
3456.97 38.9367
3456.99 62.4544
3457.00 77.8037
3457.01 62.4543
3457.03 38.9368
3457.04 23.3893
3457.05 15.3040
3457.07 10.6115
3457.08 7.72601
3457.11 4.49173
3457.13 2.95895
3457.19 1.53764
3457.24 0.946300
3457.34 0.460162
3457.45 0.272321
3457.66 0.128938
3457.87 0.0765857
3458.71 0.0242542
3460.39 0.0112836
3463.76 0.00972975
3467.12 0.0122340
3470.48 0.0176811
3473.85 0.0293634
3475.53 0.0406769
3477.21 0.0605204
3478.05 0.0765741
3478.89 0.100116
3479.73 0.136602
3480.16 0.162892
3480.58 0.197475
3481.00 0.244441
3481.42 0.310032
3481.84 0.405851
3482.26 0.552296
3482.68 0.791869
3483.10 1.21418
3483.31 1.55406
3483.52 2.03596
3483.73 2.73384
3483.94 3.74032
3484.27 5.98877
3484.60 7.48164
3484.93 5.98006
3485.26 3.73891
3485.51 2.58261
3485.76 1.83530
3486.01 1.35059
3486.26 1.02689
3486.76 0.643540
3487.25 0.438016
3487.75 0.316111
3488.25 0.238489
3489.24 0.149404
3490.24 0.102252
3491.23 0.0744309
3492.23 0.0566435
3493.23 0.0446159
3495.22 0.0298482
3497.21 0.0214815
3499.20 0.0162905
3501.19 0.0128531
3505.17 0.00872747
3509.15 0.00644831
3517.11 0.00417301
3525.08 0.00317658
3533.04 0.00282736
3537.02 0.00295594
3541.00 0.00371353
3544.99 0.00843652
3546.98 0.0273758
3547.97 0.100402
3548.22 0.173306
3548.47 0.371462
3548.60 0.633124
3548.72 1.30422
3548.78 2.12793
3548.84 4.05634
3548.87 6.15753
3548.91 10.3424
3548.92 14.2894
3548.94 20.2420
3548.95 31.0478
3548.97 49.5698
3548.98 79.6373
3549.00 99.0057
3549.02 79.6370
3549.03 49.5698
3549.04 35.9163
3549.05 26.2603
3549.07 19.7474
3549.08 15.2626
3549.10 9.78073
3549.12 6.74570
3549.16 3.73052
3549.21 2.35339
3549.30 1.17718
3549.38 0.703610
3549.56 0.333084
3549.74 0.194413
3550.09 0.0899941
3550.44 0.0522376
3551.84 0.0147225
3554.66 0.00505611
3560.28 0.00255638
3565.90 0.00206595
3571.52 0.00189021
3594.02 0.00182429
3616.51 0.00211472
3639.00 0.00275049
3661.49 0.00403858
3672.74 0.00518269
3683.98 0.00700255
3695.23 0.0101559
3706.47 0.0164398
3712.09 0.0224313
3717.72 0.0336322
3720.53 0.0444242
3723.34 0.0669610
3724.75 0.0926063
3725.45 0.115996
3726.15 0.156161
3726.85 0.236944
3727.21 0.313570
3727.56 0.446288
3727.91 0.710305
3728.09 0.953220
3728.26 1.35556
3728.44 2.10329
3728.52 2.73969
3728.61 3.70227
3728.70 5.28939
3728.79 8.09895
3728.88 13.5662
3728.92 18.2285
3728.96 24.7814
3729.03 39.6499
3729.10 49.5769
3729.17 39.6490
3729.24 24.7814
3729.31 15.4711
3729.37 10.1752
3729.44 7.08455
3729.51 5.17883
3729.57 3.93848
3729.64 3.09261
3729.77 2.05319
3729.91 1.46701
3730.04 1.10595
3730.31 0.704548
3730.58 0.499318
3730.85 0.381219
3731.38 0.259169
3732.45 0.172613
3733.52 0.149082
3735.67 0.155218
3737.81 0.196122
3739.95 0.275726
3742.10 0.426929
3743.17 0.553487
3744.24 0.739988
3745.31 1.02147
3746.38 1.44614
3747.89 2.31196
3749.40 2.88845
3750.91 2.30888
3752.42 1.44241
3753.42 1.04010
3754.42 0.765883
3756.43 0.450191
3758.43 0.290716
3760.43 0.201666
3762.44 0.147533
3764.44 0.112424
3768.45 0.0713334
3772.46 0.0492181
3776.46 0.0359985
3784.48 0.0216786
3792.49 0.0145065
3800.50 0.0104122
3808.52 0.00785732
3816.53 0.00615693
3832.56 0.00410563
3848.59 0.00296311
3864.62 0.00226307
3880.64 0.00180437
3912.70 0.00126421
3944.76 0.000982056
3976.81 0.000868527
3992.84 0.00103043
4000.85 0.00187044
4004.86 0.00527439
4006.86 0.0186624
4007.87 0.0702731
4008.12 0.121935
4008.37 0.261802
4008.49 0.445109
4008.62 0.918010
4008.68 1.50546
4008.74 2.85939
4008.77 4.39129
4008.81 7.36710
4008.82 10.1671
4008.84 14.3776
4008.85 21.9836
4008.87 34.3834
4008.88 55.5995
4008.90 68.7384
4008.92 55.5993
4008.93 34.3833
4008.94 25.3947
4008.95 18.6196
4008.98 10.8565
4009.00 6.96813
4009.02 4.80996
4009.06 2.66209
4009.11 1.67982
4009.20 0.840224
4009.28 0.502023
4009.46 0.237346
4009.64 0.137903
4010.34 0.0365994
4011.75 0.00988222
4014.56 0.00301942
4020.19 0.00127531
4031.45 0.000845676
4042.72 0.000894096
4048.35 0.00144346
4051.16 0.00369991
4052.57 0.0125791
4053.27 0.0467197
4053.62 0.172791
4053.80 0.602700
4053.84 0.981039
4053.89 1.86127
4053.91 2.81280
4053.93 4.68764
4053.95 9.03204
4053.97 13.4662
4053.98 20.7052
4053.99 33.3035
4054.00 41.4346
4054.01 33.3035
4054.02 20.7053
4054.04 12.0163
4054.05 7.65934
4054.08 3.66235
4054.11 2.10465
4054.13 1.35726
4054.19 0.695194
4054.24 0.420630
4054.46 0.117859
4054.89 0.0316325
4055.75 0.00862182
4057.48 0.00267563
4060.94 0.00115973
4067.85 0.000770430
4081.67 0.000667111
4109.31 0.000654754
4164.59 0.000781016
4192.23 0.000934074
4219.87 0.00121427
4233.69 0.00145240
4247.51 0.00185145
4254.42 0.00220885
4261.33 0.00293923
4268.24 0.00596625
4271.69 0.0169738
4272.56 0.0280664
4273.42 0.0589429
4273.85 0.100831
4274.28 0.214908
4274.50 0.365089
4274.72 0.755242
4274.82 1.23866
4274.88 1.67472
4274.93 2.38571
4274.99 3.65561
4275.01 4.69704
4275.04 6.23598
4275.07 8.62531
4275.09 12.5565
4275.12 19.4285
4275.15 31.7532
4275.17 50.4370
4275.20 63.4571
4275.23 50.4363
4275.25 31.7529
4275.27 21.5911
4275.29 15.3700
4275.32 11.1673
4275.34 8.51525
4275.38 5.30389
4275.42 3.62395
4275.46 2.60428
4275.50 1.97098
4275.58 1.23239
4275.66 0.838306
4275.74 0.609024
4275.90 0.363174
4276.23 0.171785
4276.55 0.100572
4277.20 0.0474055
4277.85 0.0282528
4280.45 0.00943026
4285.64 0.00494131
4290.84 0.00449213
4296.03 0.00474908
4306.42 0.00620878
4316.81 0.00914965
4322.01 0.0116252
4327.20 0.0153519
4332.40 0.0213157
4337.59 0.0317146
4340.19 0.0400878
4342.79 0.0523041
4345.38 0.0711266
4347.98 0.102244
4349.28 0.126024
4350.58 0.159050
4351.88 0.206686
4353.18 0.278596
4354.48 0.393769
4355.77 0.591428
4356.42 0.745603
4357.07 0.959347
4357.72 1.25972
4358.37 1.67900
4359.49 2.68397
4360.60 3.35232
4361.72 2.68219
4362.83 1.67729
4363.81 1.09240
4364.79 0.741263
4365.77 0.526892
4366.75 0.390502
4368.71 0.236378
4370.67 0.157344
4372.62 0.111907
4374.58 0.0835638
4378.50 0.0516180
4382.42 0.0350343
4386.33 0.0253559
4390.25 0.0192273
4394.17 0.0151063
4402.00 0.0100867
4409.84 0.00726775
4417.67 0.00553357
4425.50 0.00439579
4441.17 0.00305665
4456.84 0.00234960
4488.18 0.00175249
4519.51 0.00171225
4550.85 0.00219756
4566.52 0.00280621
4582.18 0.00399061
4590.02 0.00504612
4597.85 0.00684728
4605.69 0.0114716
4607.65 0.0147753
4609.60 0.0228745
4610.58 0.0333309
4611.56 0.0614853
4612.05 0.0989841
4612.54 0.198909
4612.79 0.327903
4612.91 0.449154
4613.03 0.653168
4613.15 1.04375
4613.22 1.38249
4613.28 1.91554
4613.34 2.81932
4613.40 4.51120
4613.43 5.97634
4613.46 8.11121
4613.49 11.5418
4613.52 16.8984
4613.56 26.9231
4613.60 33.7888
4613.64 26.9225
4613.68 16.8981
4613.71 11.1367
4613.75 7.60936
4613.78 5.43870
4613.81 4.08012
4613.88 2.48086
4613.95 1.66591
4614.02 1.18777
4614.08 0.892720
4614.22 0.556070
4614.35 0.380750
4614.49 0.278223
4614.76 0.169445
4615.30 0.0860772
4615.84 0.0554799
4616.92 0.0333054
4618.00 0.0259482
4620.16 0.0220698
4622.32 0.0225916
4626.63 0.0287008
4630.95 0.0414050
4635.27 0.0671103
4637.43 0.0904934
4639.59 0.128746
4641.74 0.197371
4642.82 0.253885
4643.90 0.337608
4644.98 0.468318
4646.06 0.684555
4647.14 1.06591
4648.22 1.76127
4649.26 2.81618
4650.30 3.51818
4651.34 2.81454
4652.38 1.75967
4653.58 1.00843
4654.79 0.623402
4655.99 0.415684
4657.19 0.294463
4658.39 0.218544
4659.59 0.168284
4662.00 0.108268
4664.40 0.0753320
4666.81 0.0554145
4671.62 0.0336119
4676.42 0.0225978
4681.23 0.0162896
4686.04 0.0123580
4690.85 0.00976109
4700.47 0.00674401
4710.09 0.00548352
4714.89 0.00560878
4717.30 0.00608847
4719.70 0.00720775
4722.11 0.00989737
4723.31 0.0126922
4724.51 0.0178770
4725.71 0.0290326
4726.31 0.0401282
4726.92 0.0602415
4727.52 0.102560
4728.12 0.217373
4728.42 0.368037
4728.72 0.754640
4728.87 1.23208
4729.02 2.34113
4729.09 3.54467
4729.13 4.53138
4729.17 5.92882
4729.21 8.11271
4729.24 11.5120
4729.28 17.3877
4729.32 27.4136
4729.36 43.9330
4729.40 54.7945
4729.44 43.9322
4729.48 27.4128
4729.52 16.4172
4729.57 10.4224
4729.61 7.07222
4729.65 5.06950
4729.70 3.79481
4729.74 2.93975
4729.82 1.90631
4729.91 1.33268
4730.00 0.982908
4730.17 0.598756
4730.34 0.401808
4730.51 0.288364
4730.85 0.169798
4731.20 0.112041
4731.54 0.0798087
4732.23 0.0468322
4732.92 0.0311824
4733.60 0.0225392
4734.98 0.0138000
4736.35 0.00967348
4737.72 0.00738891
4740.47 0.00504923
4743.22 0.00390892
4745.97 0.00324938
4751.46 0.00252241
4762.46 0.00187975
4773.45 0.00160684
4784.44 0.00155146
4795.43 0.00187955
4800.93 0.00249853
4803.68 0.00315481
4806.42 0.00438464
4809.17 0.00705830
4810.55 0.00974218
4811.92 0.0146548
4813.29 0.0251487
4813.98 0.0355630
4814.67 0.0544399
4815.35 0.0942083
4816.04 0.202503
4816.39 0.345310
4816.73 0.714875
4816.90 1.17357
4816.99 1.58730
4817.07 2.25167
4817.16 3.44703
4817.20 4.42564
4817.24 5.86921
4817.29 8.10488
4817.33 11.7699
4817.37 18.1411
4817.41 29.2544
4817.46 46.7554
4817.50 58.4920
4817.54 46.7545
4817.59 29.2535
4817.63 17.7547
4817.68 11.3406
4817.72 7.72603
4817.76 5.59113
4817.81 4.18953
4817.85 3.26502
4817.94 2.12574
4818.03 1.48971
4818.12 1.10037
4818.30 0.669501
4818.48 0.448600
4818.66 0.321895
4818.83 0.242182
4819.01 0.188820
4819.37 0.123937
4819.72 0.0877063
4820.08 0.0653857
4820.44 0.0506702
4821.15 0.0330698
4821.86 0.0233733
4823.29 0.0135878
4824.71 0.00899759
4826.14 0.00648102
4828.99 0.00395332
4831.84 0.00276712
4834.69 0.00211361
4840.39 0.00144746
4846.09 0.00112453
4851.79 0.000938583
4863.19 0.000734182
4885.99 0.000550415
4908.79 0.000459856
4954.40 0.000366957
5000.00 0.000325680
5041.49 0.000317088
5082.99 0.000343329
5103.73 0.000383337
5124.48 0.000472847
5134.85 0.000565454
5145.23 0.000749859
5155.60 0.00129583
5160.79 0.00258577
5163.38 0.00671653
5164.68 0.0220701
5165.32 0.0799440
5165.65 0.288877
5165.81 0.972325
5165.85 1.55920
5165.89 2.82824
5165.93 6.62104
5165.95 11.5941
5165.97 22.8317
5165.99 36.5299
5166.00 45.6621
5166.01 36.5298
5166.03 22.8317
5166.05 11.9621
5166.07 6.96625
5166.10 3.14389
5166.14 1.75801
5166.18 1.11661
5166.33 0.336275
5166.62 0.0937085
5167.22 0.0261041
5168.41 0.00847097
5170.80 0.00458258
5173.18 0.00488655
5175.56 0.00671442
5177.94 0.0111304
5179.14 0.0156238
5180.33 0.0238387
5181.52 0.0413210
5182.71 0.0895623
5183.31 0.154206
5183.90 0.326579
5184.20 0.547362
5184.50 1.09752
5184.65 1.74432
5184.72 2.30658
5184.80 3.16886
5184.87 4.62550
5184.95 7.24305
5184.98 9.39658
5185.02 12.5424
5185.06 17.2452
5185.09 24.3892
5185.15 39.1048
5185.20 48.7966
5185.25 39.1040
5185.31 24.3883
5185.36 15.2359
5185.41 9.97643
5185.46 6.91491
5185.51 5.05979
5185.57 3.82587
5185.62 2.99951
5185.72 1.97054
5185.82 1.38479
5185.93 1.02753
5186.13 0.628874
5186.34 0.423011
5186.55 0.304229
5186.96 0.178725
5187.37 0.117497
5187.78 0.0831309
5188.61 0.0479901
5189.44 0.0312650
5190.26 0.0220400
5191.91 0.0127260
5193.56 0.00835787
5195.21 0.00596620
5198.52 0.00357366
5201.82 0.00246320
5205.12 0.00186220
5211.72 0.00127555
5218.33 0.00102066
5224.93 0.000900862
5238.14 0.000838714
5251.35 0.000903229
5264.56 0.00108101
5277.77 0.00150560
5284.37 0.00231080
5287.67 0.00480049
5289.32 0.0141298
5290.15 0.0498602
5290.56 0.182486
5290.77 0.637525
5290.82 1.04670
5290.87 1.98904
5290.90 3.04006
5290.92 5.16321
5290.95 10.3070
5290.96 15.8269
5290.97 25.4388
5290.99 40.8045
5291.00 50.8332
5291.01 40.8045
5291.03 25.4388
5291.04 14.7579
5291.06 9.14277
5291.09 4.32556
5291.12 2.47300
5291.15 1.59026
5291.21 0.812317
5291.27 0.494706
5291.50 0.139603
5291.98 0.0382978
5292.93 0.0112695
5294.84 0.00439116
5298.65 0.00287621
5306.27 0.00315838
5313.90 0.00427875
5321.52 0.00643933
5325.33 0.00827028
5329.14 0.0110604
5332.95 0.0156113
5336.76 0.0237721
5340.58 0.0406765
5342.48 0.0569046
5344.39 0.0852236
5346.29 0.141464
5347.25 0.193030
5348.20 0.278492
5349.15 0.435373
5349.63 0.567785
5350.10 0.768495
5350.58 1.09285
5351.06 1.65485
5351.29 2.09698
5351.53 2.71649
5351.77 3.59682
5352.01 4.84065
5352.40 7.74720
5352.80 9.68529
5353.20 7.74576
5353.59 4.83925
5353.93 3.17252
5354.28 2.16527
5354.62 1.54467
5354.96 1.14841
5355.64 0.697638
5356.32 0.465437
5357.01 0.331334
5357.69 0.247556
5359.05 0.152844
5360.42 0.103532
5361.78 0.0747284
5363.15 0.0564617
5364.51 0.0441616
5367.25 0.0291439
5369.98 0.0206832
5372.71 0.0154515
5375.44 0.0119934
5380.90 0.00785075
5386.36 0.00556005
5391.82 0.00416269
5397.28 0.00324890
5408.20 0.00216805
5419.12 0.00158152
5430.04 0.00123322
5440.96 0.00101642
5462.81 0.000808193
5484.65 0.000854198
5495.57 0.00107673
5501.03 0.00132869
5506.49 0.00180985
5511.95 0.00286563
5514.69 0.00392913
5517.42 0.00587767
5520.15 0.0100459
5521.51 0.0141840
5522.88 0.0216887
5524.24 0.0375114
5525.61 0.0806608
5526.29 0.137608
5526.97 0.285623
5527.31 0.470145
5527.48 0.637225
5527.65 0.908675
5527.83 1.39826
5527.91 1.79907
5528.00 2.39289
5528.08 3.33194
5528.17 4.87206
5528.25 7.58771
5528.29 9.72877
5528.34 12.5392
5528.42 20.0623
5528.50 25.0773
5528.58 20.0616
5528.66 12.5385
5528.74 8.02786
5528.81 5.40174
5528.89 3.81798
5528.96 2.81735
5529.11 1.69067
5529.26 1.12166
5529.41 0.794208
5529.56 0.591980
5529.85 0.363947
5530.15 0.245930
5530.45 0.177174
5530.74 0.133677
5531.04 0.104522
5531.63 0.0688607
5532.23 0.0487993
5532.82 0.0364102
5533.41 0.0282393
5534.60 0.0184405
5535.79 0.0130274
5536.98 0.00972074
5538.16 0.00755710
5540.54 0.00498765
5542.91 0.00357836
5545.29 0.00272245
5547.66 0.00216382
5552.41 0.00150177
5557.16 0.00113883
5566.66 0.000773411
5576.16 0.000601537
5585.66 0.000507233
5604.66 0.000414751
5642.65 0.000367468
5680.65 0.000402052
5718.65 0.000532657
5737.64 0.000673696
5756.64 0.000934490
5775.64 0.00148977
5785.14 0.00203773
5794.64 0.00302692
5799.39 0.00385356
5804.14 0.00510745
5808.89 0.00714829
5813.64 0.0108132
5816.01 0.0138614
5818.39 0.0184637
5820.76 0.0259007
5823.14 0.0391061
5825.51 0.0661497
5826.70 0.0918631
5827.89 0.136292
5828.48 0.171822
5829.07 0.223354
5829.67 0.302082
5830.26 0.430576
5830.56 0.527810
5830.85 0.661516
5831.15 0.851920
5831.45 1.13363
5831.74 1.57538
5832.04 2.30961
5832.34 3.61188
5832.63 5.99349
5832.92 9.58964
5833.20 11.9875
5833.48 9.58877
5833.77 5.99296
5833.95 4.36473
5834.13 3.24100
5834.49 1.92747
5834.86 1.25445
5835.22 0.875817
5835.59 0.643714
5835.95 0.492650
5836.68 0.315895
5837.40 0.220977
5838.13 0.165042
5839.59 0.107588
5841.04 0.0866953
5842.50 0.0976417
5843.22 0.130461
5843.59 0.165929
5843.95 0.231160
5844.31 0.367743
5844.68 0.722609
5844.86 1.16109
5845.04 2.19122
5845.13 3.31692
5845.18 4.24214
5845.22 5.56519
5845.27 7.63606
5845.31 10.9019
5845.34 13.3476
5845.36 16.4194
5845.38 20.6567
5845.40 26.0896
5845.45 41.6396
5845.50 52.1514
5845.52 49.0546
5845.55 41.6384
5845.60 26.0881
5845.63 19.2370
5845.66 14.3682
5845.71 8.68202
5845.77 5.70832
5845.83 4.00833
5845.89 2.94514
5845.95 2.26148
5846.07 1.45227
5846.19 1.00911
5846.31 0.745033
5846.54 0.456836
5846.78 0.310936
5847.02 0.227575
5847.49 0.140054
5847.96 0.0972525
5848.44 0.0730855
5849.38 0.0478357
5850.33 0.0353689
5851.27 0.0282455
5853.17 0.0210364
5855.06 0.0188423
5856.95 0.0224217
5857.90 0.0301457
5858.85 0.0536296
5859.32 0.0862255
5859.79 0.175402
5860.03 0.292979
5860.27 0.595448
5860.38 0.971169
5860.50 1.84702
5860.56 2.80277
5860.62 4.70908
5860.65 6.47578
5860.68 9.22565
5860.71 14.0607
5860.74 22.1711
5860.77 35.4690
5860.80 44.3340
5860.83 35.4685
5860.86 22.1706
5860.88 16.3833
5860.90 12.3154
5860.94 7.54256
5860.97 5.00135
5861.01 3.53050
5861.05 2.59523
5861.09 1.99708
5861.16 1.28430
5861.24 0.889933
5861.31 0.655419
5861.46 0.397369
5861.61 0.267316
5861.76 0.192797
5862.05 0.115090
5862.35 0.0774889
5862.65 0.0564608
5863.25 0.0349488
5863.84 0.0246727
5864.44 0.0189396
5865.63 0.0130422
5866.82 0.0101854
5868.01 0.00859488
5870.40 0.00715353
5872.78 0.00720565
5875.16 0.00976104
5877.55 0.0264161
5878.14 0.0435092
5878.74 0.0903923
5879.04 0.152417
5879.34 0.314479
5879.48 0.516646
5879.63 1.00099
5879.71 1.54843
5879.78 2.66223
5879.82 3.70625
5879.86 5.44721
5879.89 8.55059
5879.93 14.3783
5879.97 22.9516
5880.00 28.7555
5880.04 22.9512
5880.07 14.3781
5880.09 10.1832
5880.12 7.42329
5880.14 5.57172
5880.17 4.30119
5880.22 2.72987
5880.26 1.88450
5880.36 1.03872
5880.46 0.657346
5880.65 0.328701
5880.84 0.197431
5881.23 0.0944943
5881.62 0.0559165
5882.39 0.0269740
5883.16 0.0164296
5886.25 0.00577577
5892.44 0.00270560
5898.62 0.00194041
5904.81 0.00158852
5917.18 0.00128734
5929.55 0.00126142
5941.92 0.00153503
5948.10 0.00189308
5954.29 0.00259664
5957.38 0.00320797
5960.47 0.00415496
5963.57 0.00572549
5966.66 0.00859638
5968.20 0.0110167
5969.75 0.0147056
5971.30 0.0207338
5972.84 0.0315878
5974.39 0.0542066
5975.93 0.114540
5976.71 0.191846
5977.09 0.263784
5977.48 0.384595
5977.67 0.479048
5977.87 0.611795
5978.06 0.807361
5978.25 1.11144
5978.45 1.62161
5978.54 2.01291
5978.64 2.54859
5978.74 3.31964
5978.83 4.43913
5978.93 6.13917
5979.03 8.66670
5979.16 13.8663
5979.30 17.3322
5979.44 13.8655
5979.57 8.66594
5979.73 4.98870
5979.89 3.09227
5980.05 2.06532
5980.20 1.46745
5980.36 1.08968
5980.51 0.840408
5980.83 0.540964
5981.14 0.375938
5981.45 0.276332
5982.08 0.167105
5982.71 0.111743
5983.33 0.0799997
5983.96 0.0600832
5984.59 0.0468141
5985.84 0.0307494
5987.09 0.0217755
5988.35 0.0162599
5989.60 0.0126293
5992.10 0.00829784
5994.61 0.00591009
5997.12 0.00445502
5999.62 0.00350275
6004.63 0.00237222
6009.65 0.00175110
6019.67 0.00112512
6029.69 0.000830359
6039.72 0.000668284
6059.76 0.000507659
6079.81 0.000441328
6099.86 0.000429550
6119.91 0.000548683
6129.93 0.00108538
6134.94 0.00322082
6137.45 0.0115801
6138.70 0.0435818
6139.33 0.160576
6139.48 0.271732
6139.64 0.552154
6139.72 0.895018
6139.80 1.66856
6139.84 2.48368
6139.87 4.04045
6139.91 7.46624
6139.93 10.8898
6139.95 16.4162
6139.98 26.0879
6140.00 32.8331
6140.02 26.0877
6140.05 16.4161
6140.07 10.0628
6140.10 6.50024
6140.14 3.22577
6140.19 1.88991
6140.24 1.23278
6140.34 0.639430
6140.43 0.389448
6140.62 0.187743
6140.81 0.110387
6141.58 0.0296039
6143.11 0.00790788
6146.18 0.00228171
6152.31 0.000850781
6164.58 0.000495969
6189.11 0.000429345
6238.17 0.000510627
6262.71 0.000610368
6287.24 0.000802268
6299.50 0.000996122
6311.77 0.00143498
6317.90 0.00197591
6320.97 0.00249396
6324.03 0.00342103
6327.10 0.00537781
6328.63 0.00731519
6330.17 0.0108382
6331.70 0.0183278
6332.47 0.0257473
6333.23 0.0391535
6334.00 0.0673771
6334.77 0.143874
6335.15 0.244458
6335.53 0.503531
6335.73 0.822963
6335.82 1.10949
6335.92 1.56759
6336.01 2.38401
6336.06 3.04655
6336.11 4.01553
6336.16 5.49914
6336.20 7.89352
6336.25 11.9680
6336.30 18.9865
6336.35 30.4259
6336.40 37.9713
6336.45 30.4254
6336.50 18.9859
6336.53 14.0511
6336.56 10.6324
6336.62 6.49682
6336.68 4.27248
6336.74 3.01368
6336.80 2.21995
6336.86 1.70627
6336.98 1.09104
6337.11 0.755797
6337.23 0.553855
6337.47 0.334287
6337.71 0.223126
6337.95 0.159712
6338.43 0.0934572
6338.92 0.0614059
6339.40 0.0435757
6340.37 0.0254307
6341.33 0.0168510
6342.30 0.0121408
6344.23 0.00741763
6346.16 0.00522504
6348.10 0.00404275
6351.96 0.00290034
6355.83 0.00241609
6359.69 0.00219857
6367.42 0.00210602
6382.88 0.00251167
6398.35 0.00354984
6406.08 0.00445105
6413.81 0.00582180
6421.54 0.00803750
6429.27 0.0119554
6433.13 0.0151562
6437.00 0.0198968
6440.86 0.0273513
6444.73 0.0400600
6448.60 0.0643860
6450.53 0.0858387
6452.46 0.119971
6454.39 0.178855
6455.36 0.225436
6456.33 0.291929
6457.29 0.390661
6458.26 0.543187
6459.22 0.788260
6460.19 1.18621
6461.35 1.89676
6462.50 2.36981
6463.66 1.89592
6464.81 1.18542
6465.54 0.867032
6466.28 0.646098
6467.74 0.386147
6469.21 0.252046
6470.67 0.176097
6472.14 0.129540
6473.61 0.0991486
6476.54 0.0634074
6479.47 0.0441017
6482.40 0.0325573
6488.27 0.0201080
6494.13 0.0139827
6499.99 0.0106281
6505.86 0.00871772
6511.72 0.00769306
6523.45 0.00761116
6529.31 0.00874174
6535.18 0.0113652
6541.04 0.0174094
6543.97 0.0234524
6546.91 0.0342417
6549.84 0.0561712
6551.30 0.0767078
6552.77 0.111531
6554.24 0.177489
6554.97 0.234970
6555.70 0.325312
6556.43 0.478180
6556.80 0.597091
6557.17 0.763374
6557.53 1.00499
6557.90 1.36639
6558.27 1.92434
6558.63 2.78898
6559.12 4.46211
6559.60 5.57749
6560.08 4.46124
6560.57 2.78812
6560.86 2.06362
6561.16 1.55342
6561.75 0.942735
6562.34 0.621280
6562.93 0.436748
6563.52 0.322403
6564.10 0.247393
6565.28 0.158528
6566.46 0.110106
6567.64 0.0809758
6570.00 0.0491984
6572.35 0.0331862
6574.71 0.0240065
6577.07 0.0182576
6579.42 0.0144180
6584.14 0.00976098
6588.85 0.00714406
6598.28 0.00444619
6607.71 0.00314330
6617.14 0.00241071
6635.99 0.00165745
6654.85 0.00130641
6673.70 0.00113291
6711.41 0.00106405
6749.13 0.00131443
6767.98 0.00164215
6786.84 0.00227264
6796.27 0.00281085
6805.69 0.00363315
6815.12 0.00497391
6824.55 0.00737369
6833.98 0.0123213
6838.69 0.0170476
6843.41 0.0252571
6848.12 0.0414226
6850.48 0.0561174
6852.83 0.0802804
6855.19 0.123993
6856.37 0.160337
6857.55 0.214712
6858.73 0.300746
6859.90 0.445825
6861.08 0.708786
6861.67 0.918544
6862.26 1.20601
6863.33 1.92931
6864.40 2.41119
6865.47 1.92854
6866.54 1.20527
6867.51 0.775013
6868.48 0.520851
6869.45 0.367822
6870.41 0.271279
6872.35 0.163209
6874.29 0.108281
6876.22 0.0768795
6878.16 0.0573668
6882.03 0.0354591
6885.90 0.0241252
6889.78 0.0175315
6893.65 0.0133667
6897.52 0.0105758
6905.27 0.00719738
6913.01 0.00532997
6920.76 0.00421725
6928.50 0.00353503
6943.99 0.00295188
6951.74 0.00299263
6959.48 0.00334985
6967.23 0.00435011
6971.10 0.00539458
6974.97 0.00728657
6978.85 0.0112029
6980.78 0.0149645
6982.72 0.0215909
6984.66 0.0351259
6985.62 0.0480667
6986.59 0.0707933
6987.56 0.116810
6988.04 0.160221
6988.53 0.234911
6989.01 0.380352
6989.25 0.511259
6989.50 0.724478
6989.62 0.885028
6989.74 1.10509
6989.86 1.41722
6989.98 1.87857
6990.10 2.59525
6990.22 3.77560
6990.34 5.84244
6990.40 7.45529
6990.46 9.57736
6990.58 15.3400
6990.70 19.1382
6990.82 15.2886
6990.94 9.57864
6991.05 6.14876
6991.15 4.14193
6991.26 2.93233
6991.37 2.16860
6991.58 1.31082
6991.80 0.877348
6992.01 0.629132
6992.22 0.476232
6992.65 0.306079
6993.08 0.220946
6993.51 0.174891
6994.37 0.139692
6995.23 0.154363
6996.09 0.248387
6996.51 0.379496
6996.73 0.501350
6996.94 0.701983
6997.16 1.06732
6997.27 1.36924
6997.37 1.81978
6997.48 2.53671
6997.59 3.72936
6997.69 5.86865
6997.75 7.57705
6997.80 9.86227
6997.90 15.7925
6998.00 19.6974
6998.10 15.7908
6998.20 9.85956
6998.26 7.28508
6998.32 5.45483
6998.45 3.29618
6998.57 2.16831
6998.69 1.52395
6998.81 1.12646
6998.94 0.865695
6999.18 0.557269
6999.43 0.388916
6999.68 0.287966
7000.17 0.177559
7000.66 0.121485
7001.15 0.0891559
7002.14 0.0548998
7003.12 0.0379105
7004.11 0.0281560
7006.08 0.0178133
7008.05 0.0126333
7010.02 0.00963414
7013.96 0.00643900
7017.90 0.00485403
7021.84 0.00396583
7029.71 0.00312524
7037.59 0.00291798
7045.47 0.00328670
7053.35 0.00590961
7057.29 0.0159778
7058.27 0.0261234
7059.26 0.0542550
7059.75 0.0922742
7060.24 0.194739
7060.49 0.328067
7060.74 0.668368
7060.86 1.08074
7060.98 2.02856
7061.04 3.04985
7061.11 4.99570
7061.14 6.73477
7061.17 9.45983
7061.20 13.9161
7061.23 21.2761
7061.26 33.8655
7061.30 42.5449
7061.34 33.8651
7061.37 21.2759
7061.41 12.7028
7061.45 8.06960
7061.49 5.47879
7061.52 3.96127
7061.60 2.30919
7061.67 1.50243
7061.82 0.777863
7061.97 0.473888
7062.27 0.228841
7062.57 0.135177
7063.17 0.0640456
7063.77 0.0380309
7064.98 0.0189014
7066.18 0.0121123
7070.98 0.00578942
7075.79 0.00517063
7080.59 0.00579565
7085.40 0.00762065
7087.80 0.00941768
7090.20 0.0125780
7092.61 0.0190571
7095.01 0.0364779
7096.21 0.0596395
7097.41 0.121527
7098.01 0.201604
7098.31 0.276568
7098.61 0.404082
7098.91 0.648262
7099.06 0.862213
7099.21 1.20131
7099.36 1.78222
7099.44 2.23899
7099.51 2.88706
7099.59 3.84053
7099.66 5.29948
7099.74 7.61252
7099.81 11.3542
7099.91 18.1345
7100.00 22.6999
7100.09 18.1340
7100.19 11.3538
7100.26 7.84922
7100.32 5.60022
7100.39 4.13439
7100.46 3.15160
7100.60 1.97679
7100.74 1.34917
7100.88 0.974472
7101.02 0.737356
7101.29 0.464251
7101.57 0.319112
7101.85 0.233652
7102.40 0.141922
7102.95 0.0964934
7103.51 0.0708959
7104.61 0.0447081
7105.72 0.0324519
7106.82 0.0259519
7109.04 0.0201615
7111.25 0.0185512
7113.46 0.0189924
7117.89 0.0243495
7120.10 0.0297460
7122.32 0.0381241
7124.53 0.0515789
7126.74 0.0746947
7128.95 0.118883
7130.06 0.157664
7131.17 0.218906
7132.27 0.323436
7132.83 0.405155
7133.38 0.520523
7133.93 0.689524
7134.49 0.945526
7135.04 1.34681
7135.59 1.97970
7136.30 3.16794
7137.00 3.95836
7137.70 3.16529
7138.41 1.97884
7139.01 1.29996
7139.62 0.887813
7140.22 0.634312
7140.83 0.472027
7142.04 0.287214
7143.25 0.191885
7144.46 0.136839
7145.66 0.102413
7148.08 0.0634980
7150.50 0.0432189
7152.92 0.0313558
7155.34 0.0238211
7157.76 0.0187435
7162.59 0.0125325
7167.43 0.00902160
7172.27 0.00684399
7177.10 0.00540008
7186.78 0.00366303
7196.45 0.00269737
7215.80 0.00171916
7235.15 0.00126508
7254.50 0.00102833
7293.20 0.000847257
7331.89 0.000900313
7351.24 0.00102916
7370.59 0.00128380
7389.94 0.00180146
7399.61 0.00226941
7409.29 0.00303077
7418.96 0.00440308
7423.80 0.00556162
7428.64 0.00737008
7433.47 0.0105407
7438.31 0.0175043
7443.15 0.0448929
7444.36 0.0692344
7444.96 0.0921601
7445.57 0.131846
7446.17 0.210824
7446.47 0.283627
7446.77 0.405702
7447.08 0.634768
7447.23 0.831409
7447.38 1.13663
7447.53 1.64420
7447.68 2.56699
7447.76 3.33346
7447.83 4.44002
7447.91 6.12002
7447.98 8.63874
7448.09 13.8129
7448.20 17.2585
7448.31 13.8130
7448.42 8.63931
7448.54 4.89898
7448.67 3.00923
7448.80 2.00201
7448.93 1.42264
7449.06 1.05874
7449.18 0.818794
7449.44 0.534669
7449.69 0.379069
7449.95 0.285856
7450.46 0.184764
7450.97 0.134682
7451.48 0.107011
7452.50 0.0809715
7453.52 0.0722326
7454.55 0.0718648
7456.59 0.0876875
7458.63 0.130219
7459.65 0.169982
7460.67 0.234136
7461.70 0.345449
7462.21 0.433580
7462.72 0.558929
7463.23 0.744617
7463.74 1.02980
7464.25 1.48592
7464.76 2.21917
7465.38 3.54769
7466.00 4.43270
7466.62 3.54659
7467.24 2.21773
7467.89 1.33772
7468.54 0.857281
7469.19 0.585753
7469.84 0.422296
7470.49 0.317434
7471.14 0.246771
7472.43 0.161000
7473.73 0.113101
7475.03 0.0837991
7477.62 0.0513382
7480.22 0.0347261
7482.81 0.0251106
7485.41 0.0190504
7488.00 0.0149878
7493.19 0.0100472
7498.38 0.00727901
7503.57 0.00558333
7508.76 0.00448420
7519.14 0.00327421
7529.52 0.00297222
7534.71 0.00335044
7537.30 0.00387816
7539.89 0.00494404
7542.49 0.00734471
7543.79 0.00977807
7545.08 0.0142362
7546.38 0.0237296
7547.68 0.0498858
7548.98 0.177120
7549.30 0.294689
7549.46 0.402735
7549.62 0.582914
7549.79 0.915870
7549.87 1.19873
7549.95 1.63181
7550.03 2.33797
7550.11 3.58437
7550.15 4.59597
7550.19 5.99998
7550.23 8.08382
7550.27 11.0490
7550.34 17.6589
7550.40 22.1039
7550.46 17.6585
7550.53 11.0486
7550.58 7.50037
7550.63 5.27003
7550.68 3.84521
7550.73 2.90484
7550.83 1.80431
7550.93 1.22014
7551.03 0.877042
7551.13 0.659661
7551.33 0.411173
7551.53 0.280396
7551.73 0.203380
7551.93 0.154289
7552.13 0.121109
7552.53 0.0803759
7552.93 0.0573975
7553.73 0.0337010
7554.53 0.0223469
7555.33 0.0160547
7556.93 0.00966935
7558.53 0.00664860
7560.13 0.00497970
7563.33 0.00328283
7566.54 0.00246874
7569.74 0.00200811
7576.14 0.00151807
7588.95 0.00111090
7601.75 0.000934057
7627.36 0.000805867
7640.17 0.000908297
7646.57 0.00145791
7649.77 0.00368202
7651.37 0.0124311
7652.17 0.0460747
7652.57 0.170433
7652.77 0.595481
7652.87 1.84628
7652.92 4.68410
7652.95 9.11519
7652.96 13.9598
7652.97 22.0834
7652.99 35.5620
7653.00 44.0908
7653.01 35.5620
7653.03 22.0834
7653.04 12.5858
7653.06 7.85882
7653.09 3.67801
7653.15 1.35706
7653.27 0.419719
7653.52 0.117077
7654.01 0.0314357
7654.98 0.00859456
7656.94 0.00269381
7660.85 0.00119240
7668.68 0.000810654
7684.34 0.000717218
7715.65 0.000730836
7778.27 0.000950983
7809.59 0.00118703
7840.90 0.00162062
7856.55 0.00202239
7872.21 0.00283263
7880.04 0.00374099
7883.95 0.00457227
7887.86 0.00601979
7891.78 0.00900497
7893.73 0.0119226
7895.69 0.0171831
7897.65 0.0282660
7899.61 0.0586988
7900.58 0.0993515
7901.56 0.207277
7902.05 0.344938
7902.30 0.472666
7902.54 0.685948
7902.79 1.08514
7902.91 1.42601
7903.03 1.95223
7903.15 2.82967
7903.27 4.39719
7903.34 5.67416
7903.40 7.52224
7903.46 10.2534
7903.52 14.3466
7903.61 22.9155
7903.70 28.6968
7903.79 22.9149
7903.88 14.3460
7903.94 10.4172
7904.00 7.74516
7904.11 4.61382
7904.23 3.00432
7904.35 2.09469
7904.46 1.53774
7904.58 1.17442
7904.81 0.747230
7905.04 0.515562
7905.28 0.377471
7905.74 0.227571
7906.20 0.152277
7906.67 0.109398
7907.13 0.0825986
7907.60 0.0648150
7908.53 0.0433613
7909.46 0.0314343
7911.31 0.0193624
7913.17 0.0137085
7915.03 0.0106459
7918.74 0.00767474
7922.46 0.00641485
7926.17 0.00585176
7933.60 0.00562128
7948.46 0.00668030
7963.32 0.00924290
7978.19 0.0143710
7985.62 0.0189002
7993.05 0.0260960
8000.48 0.0385477
8007.91 0.0631256
8011.62 0.0859313
8015.34 0.125850
8017.19 0.160275
8019.05 0.221104
8019.98 0.278975
8020.91 0.399599
8021.37 0.532166
8021.61 0.645970
8021.84 0.826483
8022.07 1.14153
8022.19 1.39621
8022.30 1.76898
8022.42 2.34214
8022.53 3.27520
8022.65 4.88632
8022.71 6.11738
8022.77 7.77691
8022.88 12.2610
8023.00 15.2793
8023.12 12.2718
8023.23 7.79887
8023.32 5.52991
8023.40 4.06040
8023.49 3.09641
8023.57 2.44749
8023.75 1.67141
8023.92 1.25820
8024.26 0.865117
8024.60 0.702249
8025.28 0.599372
8025.96 0.603521
8027.33 0.743442
8028.69 1.04065
8030.05 1.61653
8030.74 2.11188
8031.42 2.87465
8032.10 4.12523
8032.78 6.34711
8033.12 8.13504
8033.46 10.6922
8033.80 14.4159
8034.14 19.7988
8034.67 31.6641
8035.20 39.5687
8035.73 31.6588
8036.26 19.7925
8036.82 11.8280
8037.38 7.53263
8037.94 5.11985
8038.50 3.67648
8039.06 2.75437
8039.63 2.13600
8040.75 1.38666
8041.87 0.970039
8042.99 0.715685
8045.24 0.434940
8047.49 0.291796
8049.73 0.209235
8051.98 0.157318
8054.22 0.122598
8058.71 0.0804739
8063.20 0.0568752
8067.69 0.0423413
8072.19 0.0327614
8081.17 0.0213196
8090.15 0.0150111
8099.13 0.0111734
8108.11 0.00867272
8126.08 0.00575324
8144.04 0.00429871
8153.02 0.00399072
8162.01 0.00423493
8166.50 0.00499233
8170.99 0.00748429
8173.23 0.0110751
8175.48 0.0212412
8176.60 0.0351360
8177.72 0.0731527
8178.29 0.123477
8178.57 0.171566
8178.85 0.254704
8179.13 0.418715
8179.27 0.566975
8179.41 0.809924
8179.55 1.25144
8179.62 1.61482
8179.69 2.15649
8179.76 3.00756
8179.83 4.43179
8179.90 6.98341
8179.97 11.8114
8180.04 18.9075
8180.10 23.6182
8180.17 18.9070
8180.23 11.8111
8180.28 8.41763
8180.32 6.12890
8180.37 4.59517
8180.41 3.56352
8180.50 2.28571
8180.59 1.57800
8180.68 1.15055
8180.77 0.874376
8180.94 0.552679
8181.12 0.380323
8181.30 0.277638
8181.66 0.166788
8182.01 0.111360
8182.37 0.0799133
8183.08 0.0473090
8184.51 0.0228842
8185.93 0.0140045
8188.78 0.00747304
8191.63 0.00510581
8203.03 0.00263074
8225.83 0.00174274
8248.63 0.00144338
8271.43 0.00131100
8294.23 0.00130830
8317.03 0.00153984
8328.43 0.00191797
8334.13 0.00230131
8339.82 0.00300167
8345.52 0.00449346
8348.37 0.00597257
8351.22 0.00865648
8354.07 0.0143318
8355.50 0.0199122
8356.92 0.0299303
8358.35 0.0507255
8359.77 0.105824
8360.49 0.175911
8360.84 0.240473
8361.20 0.348283
8361.56 0.547921
8361.73 0.717889
8361.91 0.978702
8362.09 1.40528
8362.18 1.72576
8362.27 2.16161
8362.36 2.76927
8362.45 3.63734
8362.53 4.89983
8362.62 6.72943
8362.76 10.7919
8362.90 13.4782
8363.04 10.7603
8363.18 6.72902
8363.33 3.97087
8363.48 2.51185
8363.63 1.69677
8363.78 1.21512
8363.93 0.907443
8364.08 0.702905
8364.38 0.455272
8364.68 0.318116
8364.98 0.234601
8365.58 0.142734
8366.19 0.0959434
8366.79 0.0690370
8367.39 0.0521198
8367.99 0.0408339
8369.19 0.0271438
8370.40 0.0194970
8371.60 0.0147958
8372.80 0.0117027
8375.21 0.00801774
8377.62 0.00599692
8382.43 0.00398490
8387.24 0.00307157
8392.05 0.00260139
8401.68 0.00221316
8420.93 0.00226282
8440.18 0.00293337
8449.80 0.00357902
8459.43 0.00459260
8469.05 0.00626623
8478.68 0.00927786
8488.30 0.0154925
8493.12 0.0214201
8497.93 0.0316846
8502.74 0.0517972
8505.15 0.0699699
8507.55 0.0996583
8509.96 0.152870
8511.16 0.196631
8512.37 0.261498
8513.57 0.362637
8514.77 0.530040
8515.98 0.825202
8516.58 1.05498
8517.18 1.36332
8518.34 2.18105
8519.50 2.72511
8520.66 2.17953
8521.82 1.36258
8522.99 0.834521
8524.17 0.540800
8525.34 0.372247
8526.51 0.269561
8527.68 0.203307
8528.85 0.158413
8531.20 0.103597
8533.54 0.0728567
8535.89 0.0539975
8540.58 0.0330751
8545.26 0.0223691
8549.95 0.0161816
8554.64 0.0122904
8559.33 0.00968860
8568.71 0.00654281
8578.08 0.00479913
8587.46 0.00375021
8596.84 0.00309273
8615.59 0.00246380
8634.34 0.00262321
8643.72 0.00331136
8648.41 0.00407267
8653.10 0.00549811
8657.78 0.00854698
8660.13 0.0115459
8662.47 0.0169180
8664.82 0.0280345
8667.16 0.0573961
8668.33 0.0946496
8668.92 0.128995
8669.50 0.186365
8670.09 0.292689
8670.38 0.383303
8670.68 0.522511
8670.97 0.750576
8671.26 1.15594
8671.41 1.48377
8671.56 1.94993
8671.70 2.63448
8671.85 3.62252
8672.07 5.79633
8672.30 7.24609
8672.53 5.79602
8672.75 3.62229
8673.00 2.11951
8673.25 1.32931
8673.51 0.895205
8673.76 0.639511
8674.01 0.477315
8674.26 0.369544
8674.76 0.239713
8675.26 0.167970
8675.76 0.124542
8676.76 0.0769880
8677.77 0.0531174
8678.77 0.0397429
8679.77 0.0317888
8680.77 0.0270811
8682.78 0.0242180
8684.78 0.0321102
8685.79 0.0469366
8686.79 0.0901568
8687.29 0.148616
8687.54 0.204932
8687.79 0.302846
8688.04 0.497656
8688.17 0.675105
8688.29 0.968291
8688.42 1.50834
8688.48 1.96257
8688.54 2.63729
8688.61 3.73392
8688.67 5.58406
8688.73 9.07523
8688.79 15.7762
8688.85 25.2392
8688.90 31.5479
8688.95 25.2386
8689.01 15.7758
8689.04 11.3601
8689.08 8.35458
8689.15 4.93296
8689.22 3.19523
8689.29 2.22058
8689.37 1.62023
8689.44 1.23645
8689.58 0.786345
8689.72 0.542292
8689.86 0.397487
8690.15 0.240394
8690.72 0.116335
8691.29 0.0695282
8692.43 0.0341652
8693.56 0.0211051
8695.84 0.0112255
8698.12 0.00746475
8702.68 0.00445095
8707.23 0.00320927
8711.79 0.00254868
8716.34 0.00214664
8725.46 0.00169774
8743.68 0.00135078
8761.90 0.00128340
8780.13 0.00137581
8798.35 0.00166866
8807.46 0.00197646
8816.58 0.00262906
8825.69 0.00528512
8830.24 0.0147038
8831.38 0.0240838
8832.52 0.0498995
8833.09 0.0844920
8833.66 0.176604
8833.95 0.294913
8834.23 0.590570
8834.37 0.941136
8834.45 1.24239
8834.52 1.71148
8834.59 2.49481
8834.66 3.92723
8834.69 5.13443
8834.73 6.86013
8834.77 9.53676
8834.80 13.4580
8834.85 21.5321
8834.90 26.9149
8834.95 21.5317
8835.00 13.4578
8835.04 9.26781
8835.08 6.62649
8835.11 4.86260
8835.15 3.71421
8835.23 2.32986
8835.30 1.58547
8835.38 1.14461
8835.45 0.863668
8835.60 0.540762
8835.90 0.269017
8836.20 0.160893
8836.80 0.0769686
8837.40 0.0456866
8838.60 0.0223987
8839.80 0.0140260
8844.59 0.00601116
8854.19 0.00481244
8863.78 0.00593980
8873.37 0.00850480
8882.96 0.0139067
8887.76 0.0189862
8892.56 0.0275910
8894.95 0.0343149
8897.35 0.0438416
8899.75 0.0579480
8902.15 0.0800287
8904.55 0.117173
8905.75 0.145854
8906.94 0.185853
8908.14 0.243415
8909.34 0.328992
8910.54 0.459735
8911.74 0.659930
8913.37 1.05615
8915.00 1.32027
8916.63 1.05564
8918.26 0.659437
8919.44 0.462431
8920.61 0.332704
8921.79 0.247169
8922.96 0.189340
8925.31 0.119874
8927.67 0.0820722
8930.02 0.0595077
8932.37 0.0450491
8937.07 0.0283416
8941.77 0.0194577
8946.47 0.0141904
8951.18 0.0108166
8955.88 0.00852781
8965.28 0.00571167
8974.69 0.00411081
8984.09 0.00311436
8993.49 0.00245202
9012.30 0.00165323
9031.11 0.00120769
9049.92 0.000933993
9068.73 0.000754285
9106.34 0.000544056
9143.96 0.000446053
9162.77 0.000436849
9181.57 0.000493545
9200.38 0.000938450
9209.79 0.00277402
9214.49 0.00994758
9215.66 0.0171888
9216.84 0.0371251
9217.43 0.0637855
9218.02 0.134670
9218.31 0.225128
9218.60 0.449309
9218.75 0.711097
9218.90 1.28234
9218.97 1.86033
9219.04 2.88598
9219.12 4.92298
9219.15 6.72648
9219.19 9.38529
9219.25 14.9638
9219.30 18.7639
9219.36 14.9635
9219.41 9.38512
9219.45 6.27330
9219.50 4.33887
9219.54 3.12833
9219.59 2.35641
9219.68 1.44408
9219.77 0.972002
9219.95 0.520989
9220.12 0.323792
9220.48 0.159186
9220.84 0.0943139
9221.55 0.0442686
9222.27 0.0256733
9223.69 0.0118696
9225.12 0.00689136
9230.83 0.00197798
9242.26 0.000723957
9265.11 0.000448038
9287.96 0.000693641
9299.38 0.00193877
9305.10 0.00689482
9307.95 0.0260187
9308.67 0.0451099
9309.38 0.0970268
9309.74 0.165227
9310.10 0.341803
9310.27 0.560529
9310.45 1.07342
9310.54 1.64458
9310.63 2.78446
9310.68 3.84368
9310.72 5.52900
9310.77 8.50162
9310.81 13.7716
9310.86 22.0514
9310.90 27.5374
9310.95 22.0511
9310.99 13.7714
9311.03 9.23580
9311.06 6.39756
9311.10 4.61769
9311.14 3.48553
9311.21 2.15043
9311.28 1.44787
9311.43 0.778543
9311.58 0.483540
9311.87 0.237869
9312.16 0.140923
9312.74 0.0660691
9313.33 0.0382370
9314.50 0.0175577
9315.66 0.0101061
9320.34 0.00274542
9329.68 0.000856589
9348.38 0.000369808
9385.76 0.000236798
9460.53 0.000201252
9535.30 0.000221790
9572.68 0.000273997
9591.38 0.000392779
9600.72 0.000775918
9605.40 0.00222857
9607.73 0.00790797
9608.90 0.0298834
9609.48 0.112317
9609.78 0.402464
9609.92 1.30487
9610.00 3.55023
9610.03 7.60650
9610.05 12.2516
9610.07 21.7659
9610.08 34.5309
9610.10 43.5699
9610.12 34.5309
9610.13 21.7659
9610.15 12.6106
9610.17 7.98869
9610.20 3.81193
9610.27 1.42645
9610.41 0.442066
9610.69 0.123636
9611.24 0.0329156
9612.35 0.00871356
9614.58 0.00246326
9619.02 0.000891731
9627.91 0.000544746
9636.80 0.000556531
9645.69 0.000683918
9654.58 0.000993998
9659.03 0.00130886
9663.47 0.00188608
9667.92 0.00312255
9670.14 0.00435561
9672.36 0.00660364
9674.58 0.0113941
9676.81 0.0247185
9677.92 0.0427516
9679.03 0.0916393
9679.58 0.155695
9680.14 0.320259
9680.42 0.522134
9680.70 0.993547
9680.83 1.50547
9680.97 2.52015
9681.04 3.44289
9681.11 4.89705
9681.18 7.33108
9681.25 11.5095
9681.33 18.3986
9681.40 23.0150
9681.48 18.3982
9681.55 11.5092
9681.64 6.60492
9681.72 4.09150
9681.81 2.71990
9681.90 1.92932
9681.98 1.42882
9682.07 1.10113
9682.24 0.708926
9682.41 0.492285
9682.59 0.361308
9682.93 0.218303
9683.28 0.145799
9683.62 0.104313
9684.31 0.0609755
9685.00 0.0399715
9685.69 0.0282598
9687.07 0.0163181
9688.46 0.0106683
9689.84 0.00755793
9692.60 0.00443048
9695.36 0.00297016
9698.12 0.00217453
9703.65 0.00138639
9709.17 0.00102939
9714.70 0.000845376
9725.74 0.000695737
9747.84 0.000860331
9758.89 0.00185480
9764.41 0.00574899
9767.17 0.0208655
9768.56 0.0781110
9768.90 0.134437
9769.25 0.283908
9769.42 0.475470
9769.59 0.947466
9769.68 1.50644
9769.76 2.71598
9769.81 3.92890
9769.85 6.11123
9769.89 10.4684
9769.92 14.3903
9769.94 20.0436
9769.97 31.9784
9770.00 40.0648
9770.03 31.9782
9770.06 20.0435
9770.09 13.3539
9770.12 9.14654
9770.14 6.54616
9770.17 4.92434
9770.22 2.99245
9770.28 2.00899
9770.38 1.07141
9770.49 0.665080
9770.70 0.325274
9770.92 0.192594
9771.34 0.0901992
9771.77 0.0523037
9773.48 0.0140144
9776.89 0.00402630
9783.71 0.00150925
9797.36 0.000976493
9811.01 0.00103940
9824.66 0.00131552
9838.31 0.00193697
9845.13 0.00254351
9851.96 0.00362456
9858.78 0.00587088
9862.19 0.00805437
9865.61 0.0119432
9869.02 0.0199455
9870.72 0.0275925
9872.43 0.0408939
9874.14 0.0671602
9874.99 0.0911152
9875.84 0.130649
9876.69 0.202569
9877.12 0.262765
9877.55 0.353211
9877.97 0.497686
9878.40 0.743717
9878.61 0.935119
9878.83 1.19830
9879.04 1.56577
9879.25 2.07522
9879.63 3.32015
9880.00 4.14643
9880.37 3.31629
9880.75 2.07216
9881.17 1.19666
9881.60 0.744362
9882.02 0.498481
9882.45 0.354231
9882.87 0.263614
9883.30 0.203402
9884.15 0.131315
9885.00 0.0916677
9885.85 0.0676417
9887.55 0.0413076
9889.25 0.0279854
9890.95 0.0203519
9892.65 0.0155827
9894.35 0.0124125
9897.75 0.00861045
9901.15 0.00652971
9907.95 0.00452446
9914.75 0.00373729
9921.55 0.00349716
9935.16 0.00398232
9941.96 0.00470765
9948.76 0.00592337
9955.56 0.00797513
9962.36 0.0116689
9969.16 0.0191796
9972.56 0.0261966
9975.96 0.0380515
9979.36 0.0603927
9981.06 0.0797481
9982.76 0.109990
9984.46 0.160731
9985.31 0.199813
9986.16 0.254190
9987.01 0.332207
9987.86 0.447749
9988.71 0.623407
9989.56 0.890841
9990.73 1.42504
9991.90 1.78049
9993.07 1.42413
9994.24 0.890422
9995.11 0.617760
9995.98 0.440741
9996.85 0.325334
9997.72 0.247954
9999.46 0.155930
10001.2 0.106321
10003.0 0.0767588
10004.7 0.0580287
10008.2 0.0364709
10011.7 0.0250295
10015.1 0.0182912
10022.1 0.0110805
10029.1 0.00753538
10036.0 0.00561567
10043.0 0.00487240
10046.5 0.00634531
10048.2 0.0135731
10049.1 0.0415870
10049.5 0.145691
10049.8 0.500702
10049.9 1.53918
10049.9 3.49270
10049.9 6.95086
10050.0 16.7563
10050.0 33.5457
10050.0 16.7563
10050.1 6.95087
10050.1 4.30079
10050.1 2.05974
10050.2 0.773941
10050.4 0.245078
10050.7 0.0695306
10051.3 0.0209127
10052.7 0.00775289
10055.3 0.00425128
10060.5 0.00334193
10065.7 0.00440540
10068.4 0.0101218
10069.7 0.0328698
10070.3 0.117528
10070.6 0.422374
10070.8 1.32971
10070.9 3.46780
10070.9 6.97951
10070.9 10.8139
10071.0 18.2666
10071.0 29.0706
10071.0 36.8476
10071.0 29.0705
10071.0 18.2665
10071.1 8.61610
10071.1 4.05413
10071.2 1.62738
10071.3 0.532371
10071.6 0.149591
10072.2 0.0409749
10073.3 0.0121296
10075.7 0.00454130
10080.3 0.00250637
10089.5 0.00185002
10108.0 0.00159955
10126.5 0.00168996
10144.9 0.00210945
10163.4 0.00318620
10172.7 0.00429442
10181.9 0.00630318
10191.1 0.0104759
10195.7 0.0144688
10200.4 0.0213818
10205.0 0.0349852
10207.3 0.0473135
10209.6 0.0675135
10211.9 0.103855
10213.1 0.134037
10214.2 0.178579
10215.4 0.249057
10216.5 0.365625
10217.7 0.572956
10218.3 0.737163
10218.8 0.955415
10219.9 1.53017
10221.0 1.91388
10222.1 1.52975
10223.2 0.955008
10224.4 0.549203
10225.7 0.340287
10226.9 0.227270
10228.2 0.161598
10229.4 0.120036
10230.7 0.0926579
10233.2 0.0597386
10235.7 0.0415863
10238.1 0.0306419
10243.1 0.0186426
10248.1 0.0125633
10253.1 0.00908567
10258.1 0.00691496
10263.1 0.00547777
10273.0 0.00379323
10283.0 0.00303488
10288.0 0.00300892
10293.0 0.00360888
10297.9 0.00795935
10300.4 0.0254250
10301.7 0.0912034
10302.0 0.154211
10302.3 0.317343
10302.5 0.528114
10302.6 0.994044
10302.7 1.54096
10302.8 2.67944
10302.8 3.76062
10302.9 5.58584
10302.9 8.88399
10302.9 14.2403
10303.0 22.0040
10303.0 28.3945
10303.0 22.0038
10303.1 14.2402
10303.1 8.88394
10303.2 5.58584
10303.2 3.76064
10303.2 2.90298
10303.3 1.63929
10303.4 1.09997
10303.5 0.568556
10303.7 0.345873
10304.0 0.166929
10304.3 0.0998346
10304.9 0.0472669
10305.4 0.0278716
10307.8 0.00835375
10312.5 0.00319774
10322.0 0.00179017
10340.9 0.00157820
10350.3 0.00197276
10355.0 0.00244529
10359.8 0.00335502
10364.5 0.00535048
10366.8 0.00734112
10369.2 0.0109502
10371.6 0.0185262
10373.9 0.0389513
10375.1 0.0654535
10376.3 0.132757
10376.9 0.213771
10377.2 0.286532
10377.5 0.398151
10377.8 0.596726
10377.9 0.754532
10378.1 0.962634
10378.2 1.28966
10378.4 1.79507
10378.5 2.60490
10378.6 3.80239
10378.8 6.04676
10379.0 7.52790
10379.2 6.04649
10379.4 3.80213
10379.6 2.17801
10379.8 1.37324
10380.0 0.911538
10380.2 0.653402
10380.4 0.482711
10380.6 0.374682
10381.0 0.243751
10381.4 0.169447
10381.8 0.124497
10382.6 0.0757083
10383.4 0.0506613
10384.3 0.0364433
10385.1 0.0275062
10385.9 0.0215264
10387.5 0.0142404
10389.1 0.0101695
10390.8 0.00766606
10392.4 0.00602517
10395.6 0.00405017
10398.9 0.00296074
10405.4 0.00185240
10411.9 0.00132491
10418.4 0.00103027
10431.4 0.000725602
10444.5 0.000576943
10457.5 0.000494202
10483.5 0.000422401
10509.5 0.000436363
10522.6 0.000487997
10535.6 0.000602493
10548.6 0.000868641
10555.1 0.00114126
10561.6 0.00164391
10568.1 0.00272255
10571.4 0.00379806
10574.6 0.00574598
10577.9 0.00987776
10579.5 0.0139396
10581.1 0.0211643
10582.8 0.0361827
10584.4 0.0753165
10585.2 0.125129
10585.6 0.170843
10586.0 0.244357
10586.4 0.381438
10586.6 0.493283
10586.8 0.660699
10587.0 0.942380
10587.2 1.40223
10587.3 1.75596
10587.4 2.24190
10587.5 2.91678
10587.6 3.84809
10587.8 6.19155
10588.0 7.76850
10588.2 6.19129
10588.4 3.84784
10588.5 2.55136
10588.7 1.75581
10588.8 1.26160
10589.0 0.959750
10589.3 0.584946
10589.5 0.395608
10589.8 0.281472
10590.1 0.212043
10590.7 0.132450
10591.3 0.0898884
10591.9 0.0649581
10592.5 0.0491277
10593.1 0.0386090
10594.2 0.0255036
10595.4 0.0181652
10596.6 0.0135805
10597.8 0.0105725
10600.1 0.00694690
10602.5 0.00493924
10604.8 0.00371297
10607.2 0.00291264
10611.9 0.00195892
10616.5 0.00143869
10625.9 0.000921971
10635.3 0.000689975
10644.7 0.000575176
10663.5 0.000508789
10682.3 0.000600150
10691.7 0.000737707
10701.1 0.00101235
10710.4 0.00162327
10715.1 0.00224045
10719.8 0.00336742
10724.5 0.00577300
10726.9 0.00815226
10729.2 0.0124217
10731.6 0.0213743
10733.9 0.0453951
10735.1 0.0765992
10736.3 0.154591
10736.9 0.248423
10737.2 0.328851
10737.4 0.454701
10737.7 0.676117
10737.9 0.850096
10738.0 1.07716
10738.2 1.42917
10738.3 1.91992
10738.5 2.73025
10738.6 3.89775
10738.8 6.33913
10739.0 7.87391
10739.1 7.37887
10739.2 6.20810
10739.4 3.89748
10739.6 2.59946
10739.7 1.79719
10739.9 1.29575
10740.0 0.986955
10740.3 0.603732
10740.7 0.408901
10741.0 0.291405
10741.3 0.219644
10741.9 0.137281
10742.5 0.0932259
10743.2 0.0677119
10743.8 0.0511827
10744.4 0.0401918
10745.7 0.0265181
10746.9 0.0188592
10748.2 0.0141082
10749.4 0.0109600
10751.9 0.00716821
10754.4 0.00507531
10756.9 0.00379041
10759.4 0.00295124
10764.4 0.00195130
10769.5 0.00140191
10774.5 0.00106776
10779.5 0.000849654
10789.5 0.000590272
10799.5 0.000447787
10819.5 0.000304283
10839.6 0.000237071
10859.6 0.000200919
10899.7 0.000168665
10979.8 0.000180950
10999.9 0.000204897
11019.9 0.000257459
11039.9 0.000461545
11049.9 0.00116442
11054.9 0.00386310
11057.4 0.0143049
11058.7 0.0537771
11059.3 0.197901
11059.6 0.657890
11059.7 1.05681
11059.8 1.95522
11059.8 2.88848
11059.9 4.63539
11059.9 8.33007
11059.9 15.7041
11060.0 23.9487
11060.0 31.2799
11060.0 23.9486
11060.1 15.7040
11060.1 9.84620
11060.1 6.11470
11060.2 2.88851
11060.2 1.64716
11060.3 1.05683
11060.4 0.537954
11060.5 0.336731
11061.0 0.0938439
11061.9 0.0249672
11063.8 0.00667218
11067.6 0.00193365
11075.0 0.000764734
11090.0 0.000573674
11105.0 0.000746167
11112.5 0.00105833
11116.2 0.00184097
11118.1 0.00459643
11119.0 0.0151771
11119.5 0.0553148
11119.7 0.192692
11119.9 0.648670
11119.9 1.87413
11120.0 4.24900
11120.0 11.3437
11120.0 22.6864
11120.0 11.3437
11120.1 4.24901
11120.1 2.38723
11120.1 0.873561
11120.2 0.267850
11120.4 0.0748910
11120.8 0.0209697
11121.6 0.00626830
11123.2 0.00247377
11126.3 0.00164572
11132.6 0.00181934
11138.8 0.00246656
11145.1 0.00370778
11148.2 0.00475748
11151.4 0.00634688
11154.5 0.00893505
11157.6 0.0135310
11160.8 0.0229774
11162.4 0.0319476
11163.9 0.0472889
11165.5 0.0772715
11166.3 0.104376
11167.1 0.147735
11167.8 0.225497
11168.2 0.287922
11168.6 0.379081
11169.0 0.518370
11169.4 0.742550
11169.8 1.12261
11170.2 1.78134
11170.6 2.84465
11171.0 3.55117
11171.4 2.84438
11171.8 1.78108
11172.3 1.01528
11172.8 0.624943
11173.3 0.415456
11173.7 0.293651
11174.2 0.217615
11174.7 0.167323
11175.7 0.107835
11176.6 0.0748264
11177.6 0.0548958
11179.5 0.0331956
11181.4 0.0221728
11183.3 0.0158831
11185.2 0.0119251
11187.1 0.00929942
11191.0 0.00611579
11194.8 0.00433891
11198.6 0.00324765
11202.5 0.00252999
11210.1 0.00167509
11217.8 0.00120526
11225.4 0.000920268
11233.1 0.000735211
11248.4 0.000518544
11263.7 0.000403977
11294.4 0.000302179
11325.0 0.000278061
11355.6 0.000307686
11386.3 0.000460771
11401.6 0.000902541
11409.2 0.00247267
11413.1 0.00844670
11415.0 0.0307022
11415.5 0.0524014
11415.9 0.109539
11416.2 0.181546
11416.4 0.356622
11416.5 0.556172
11416.7 0.977072
11416.7 1.38277
11416.8 2.07915
11416.8 3.36879
11416.9 5.53006
11417.0 9.06890
11417.0 11.1020
11417.1 9.06878
11417.1 5.52999
11417.2 3.36877
11417.2 2.24093
11417.3 1.47324
11417.3 1.09062
11417.4 0.631877
11417.5 0.424329
11417.7 0.222016
11418.0 0.135960
11418.4 0.0660391
11418.8 0.0389778
11420.5 0.0107593
11423.8 0.00316602
11430.6 0.00124563
11444.0 0.000910346
11457.5 0.00109597
11470.9 0.00157402
11477.7 0.00199562
11484.4 0.00264537
11491.1 0.00371197
11497.8 0.00563128
11501.2 0.00723103
11504.6 0.00963207
11511.3 0.0202436
11514.7 0.0338133
11516.3 0.0463307
11518.0 0.0672887
11519.7 0.106256
11520.5 0.139573
11521.4 0.190922
11522.2 0.275428
11522.6 0.339295
11523.1 0.426629
11523.5 0.549223
11523.9 0.725846
11524.3 0.985388
11524.7 1.36584
11525.4 2.19471
11526.0 2.73670
11526.6 2.18057
11527.3 1.36555
11527.9 0.861450
11528.5 0.570423
11529.1 0.398560
11529.7 0.293087
11530.9 0.174327
11532.1 0.115116
11533.3 0.0812196
11534.4 0.0604189
11536.8 0.0371108
11539.2 0.0250328
11541.6 0.0180405
11544.0 0.0136040
11546.4 0.0106376
11551.1 0.00701809
11555.9 0.00498376
11560.7 0.00372828
11565.4 0.00289961
11575.0 0.00190790
11584.5 0.00136139
11594.1 0.00102899
11603.6 0.000812813
11622.7 0.000562989
11641.8 0.000448377
11660.9 0.000506909
11670.4 0.00104620
11675.2 0.00327751
11677.6 0.0120368
11678.8 0.0450479
11679.4 0.165015
11679.7 0.558623
11679.8 1.62811
11679.9 3.51091
11679.9 6.27615
11679.9 11.4999
11680.0 17.6518
11680.0 22.8227
11680.0 17.6517
11680.1 11.4998
11680.1 7.40248
11680.1 4.62158
11680.2 2.44569
11680.3 0.992392
11680.5 0.313321
11680.9 0.0904465
11681.7 0.0244949
11683.3 0.00653834
11686.6 0.00184748
11693.2 0.000638915
11706.3 0.000316671
11732.5 0.000214249
11785.0 0.000178804
11811.3 0.000185579
11837.5 0.000213472
11863.7 0.000296365
11876.9 0.000408687
11883.4 0.000536056
11886.7 0.000716325
11888.3 0.00117757
11889.2 0.00281361
11889.6 0.00890700
11889.8 0.0293202
11889.9 0.0888703
11889.9 0.224652
11890.0 1.81813
11890.0 3.63559
11890.0 1.81814
11890.1 0.224659
11890.1 0.0888808
11890.2 0.0293378
11890.4 0.00856999
11890.9 0.00277764
11891.7 0.00127780
11893.4 0.000966601
11896.7 0.00109534
11900.1 0.00145108
11903.4 0.00212263
11906.7 0.00355488
11908.4 0.00496976
11910.1 0.00752295
11911.7 0.0128688
11913.4 0.0272743
11914.3 0.0461523
11915.1 0.0936347
11915.5 0.151695
11915.7 0.203156
11915.9 0.285493
11916.1 0.428473
11916.2 0.548889
11916.3 0.706082
11916.5 0.965241
11916.6 1.33286
11916.7 1.91703
11916.8 2.91478
11916.9 4.70223
11917.0 5.83077
11917.1 4.70211
11917.2 2.91467
11917.3 2.15417
11917.4 1.59022
11917.6 0.936517
11917.7 0.605003
11917.9 0.428443
11918.0 0.312316
11918.2 0.237226
11918.5 0.151686
11918.8 0.103986
11919.1 0.0763601
11919.8 0.0458317
11920.4 0.0305550
11921.0 0.0218438
11922.3 0.0128528
11923.5 0.00848324
11924.8 0.00605640
11927.3 0.00360660
11929.8 0.00245355
11932.3 0.00183023
11937.4 0.00122492
11942.4 0.000971975
11947.4 0.000870559
11957.5 0.000907105
11967.5 0.00125588
11972.5 0.00165375
11977.6 0.00239999
11982.6 0.00401189
11985.1 0.00561052
11987.6 0.00850330
11990.1 0.0146119
11992.6 0.0311056
11995.1 0.107914
11995.8 0.175725
11996.1 0.237447
11996.4 0.333813
11996.7 0.508813
11996.9 0.651088
11997.0 0.843739
11997.2 1.15399
11997.3 1.61337
11997.5 2.42652
11997.7 3.77714
11997.8 6.07367
11998.0 7.55871
11998.2 6.07346
11998.3 3.77693
11998.5 2.56278
11998.6 1.77757
11998.8 1.28405
11998.9 0.962604
11999.2 0.591566
11999.5 0.397276
11999.7 0.284190
12000.0 0.212989
12000.6 0.132094
12001.1 0.0897658
12001.7 0.0649331
12002.3 0.0491473
12002.8 0.0384994
12003.9 0.0254793
12005.1 0.0181280
12006.2 0.0135771
12007.3 0.0105665
12009.5 0.00695796
12011.8 0.00496139
12014.0 0.00374339
12016.3 0.00295002
12020.7 0.00200825
12025.2 0.00149989
12034.2 0.00101191
12043.1 0.000825937
12052.1 0.000812436
12061.0 0.00121113
12065.5 0.00289853
12067.7 0.00949412
12068.8 0.0347686
12069.4 0.127654
12069.7 0.441193
12069.8 1.33930
12069.9 3.27535
12069.9 5.51454
12070.0 11.8716
12070.0 19.6772
12070.0 23.7427
12070.0 19.6772
12070.0 11.8715
12070.1 5.51455
12070.1 2.81431
12070.2 1.09671
12070.4 0.350109
12070.7 0.0996600
12071.3 0.0274282
12072.6 0.00763874
12075.1 0.00246682
12080.2 0.00119397
12090.3 0.00102033
12100.4 0.00124703
12110.5 0.00177144
12115.6 0.00223070
12120.6 0.00293596
12125.7 0.00409412
12130.7 0.00617234
12135.8 0.0104883
12140.8 0.0218318
12143.4 0.0361514
12144.6 0.0493311
12145.9 0.0710023
12147.2 0.111010
12147.8 0.144421
12148.4 0.194982
12149.0 0.276083
12149.7 0.415824
12150.0 0.527014
12150.3 0.676932
12150.6 0.895186
12150.9 1.19116
12151.5 1.90937
12152.0 2.37486
12152.5 1.89500
12153.1 1.19095
12153.6 0.749790
12154.1 0.495585
12154.6 0.345793
12155.1 0.254248
12155.6 0.192934
12156.1 0.150998
12157.1 0.0996811
12158.2 0.0702892
12159.2 0.0522932
12161.2 0.0321341
12163.2 0.0216850
12165.2 0.0156190
12167.3 0.0117910
12169.3 0.00923304
12173.4 0.00610446
12177.4 0.00435119
12181.5 0.00326880
12185.5 0.00255419
12193.6 0.00169870
12201.7 0.00122734
12209.8 0.000940351
12217.9 0.000753853
12234.1 0.000536115
12250.4 0.000423002
12282.8 0.000334291
12315.2 0.000353806
12331.4 0.000413310
12347.6 0.000540967
12363.8 0.000832089
12371.9 0.00112821
12380.0 0.00167126
12384.1 0.00213143
12388.2 0.00283362
12392.2 0.00398519
12396.3 0.00606952
12400.3 0.0104662
12402.3 0.0147646
12404.4 0.0223749
12408.4 0.0781543
12409.4 0.127953
12409.9 0.172701
12410.4 0.243509
12411.0 0.370748
12411.2 0.471673
12411.5 0.618102
12411.7 0.851089
12412.0 1.21132
12412.2 1.81462
12412.5 2.84421
12412.7 4.53773
12413.0 5.66131
12413.3 4.53748
12413.5 2.84397
12413.8 1.75335
12414.1 1.14088
12414.4 0.787307
12414.6 0.577422
12414.9 0.435340
12415.2 0.339025
12415.7 0.222990
12416.2 0.156397
12416.8 0.116186
12417.8 0.0709487
12418.9 0.0477503
12420.0 0.0343142
12421.0 0.0258486
12422.1 0.0202194
12424.2 0.0133075
12426.4 0.00944640
12428.5 0.00705399
12430.6 0.00548327
12434.9 0.00360041
12439.2 0.00256116
12443.4 0.00192787
12447.7 0.00151388
12456.3 0.00102372
12464.8 0.000757212
12481.9 0.000494906
12499.0 0.000379723
12516.1 0.000325958
12550.2 0.000307891
12584.4 0.000387079
12601.5 0.000488585
12618.6 0.000684194
12627.1 0.000852438
12635.6 0.00111106
12644.2 0.00153684
12652.7 0.00230942
12657.0 0.00295599
12661.3 0.00393609
12665.5 0.00552514
12669.8 0.00835452
12678.3 0.0291005
12680.5 0.0475381
12681.6 0.0640786
12682.6 0.0905648
12683.7 0.137740
12684.2 0.176460
12684.8 0.232043
12685.3 0.318811
12685.8 0.456223
12686.4 0.688791
12686.9 1.09114
12687.4 1.74404
12688.0 2.17851
12688.6 1.74384
12689.1 1.09095
12689.5 0.794883
12689.8 0.595030
12690.5 0.357962
12691.2 0.233251
12691.9 0.163422
12692.7 0.119886
12693.4 0.0918230
12694.8 0.0584667
12696.2 0.0403982
12697.6 0.0295566
12700.4 0.0177775
12703.2 0.0118654
12706.0 0.00848743
12708.9 0.00637906
12711.7 0.00497584
12717.3 0.00328332
12723.0 0.00234066
12728.6 0.00176262
12734.2 0.00138352
12745.5 0.000931758
12756.8 0.000684355
12779.3 0.000438076
12801.9 0.000326642
12824.4 0.000270144
12869.5 0.000228407
12914.7 0.000236552
12959.8 0.000290637
12982.3 0.000346076
13004.9 0.000441152
13016.1 0.000519865
13027.4 0.000654181
13038.7 0.00106321
13044.3 0.00233365
13047.2 0.00712115
13048.6 0.0256643
13049.3 0.0948111
13049.6 0.336911
13049.8 1.13321
13049.9 3.25037
13049.9 6.54704
13049.9 10.1511
13050.0 17.3938
13050.0 34.7459
13050.0 17.3937
13050.1 8.08476
13050.1 3.80053
13050.2 1.37427
13050.4 0.417175
13050.7 0.115442
13051.3 0.0308889
13052.6 0.00854905
13055.1 0.00285569
13060.3 0.00150163
13070.5 0.00143122
13080.7 0.00184155
13090.9 0.00266324
13111.3 0.00885348
13116.4 0.0144417
13119.0 0.0195135
13121.5 0.0278593
13124.1 0.0430697
13125.4 0.0557730
13126.6 0.0747095
13127.9 0.105040
13129.2 0.156202
13129.8 0.195961
13130.5 0.250771
13131.1 0.327167
13131.7 0.430953
13132.9 0.689519
13134.0 0.862230
13135.1 0.690348
13136.3 0.433272
13137.2 0.293005
13138.1 0.211805
13138.6 0.189985
13139.0 0.189632
13139.5 0.286178
13139.7 0.642124
13139.8 1.64577
13139.9 3.64777
13139.9 6.28581
13140.0 11.0130
13140.0 21.9160
13140.0 11.0102
13140.1 4.31153
13140.1 2.34489
13140.2 0.939564
13140.4 0.356573
13140.8 0.159829
13141.5 0.0921934
13142.2 0.0702423
13142.9 0.0577371
13144.3 0.0422185
13145.8 0.0326984
13148.6 0.0215545
13151.5 0.0155024
13154.3 0.0118810
13157.2 0.00961900
13162.9 0.00733735
13168.6 0.00709521
13174.3 0.00990096
13177.1 0.0146743
13178.5 0.0195578
13180.0 0.0283448
13181.4 0.0467167
13182.8 0.0944425
13183.5 0.154913
13184.2 0.297851
13184.6 0.460259
13184.8 0.595319
13185.0 0.783910
13185.1 1.09511
13185.3 1.61756
13185.4 2.01546
13185.5 2.55693
13185.6 3.30003
13185.7 4.25933
13185.8 6.76795
13186.0 8.52353
13186.1 7.94570
13186.2 6.76772
13186.3 4.25909
13186.4 3.11380
13186.6 2.29498
13186.8 1.37937
13187.0 0.887377
13187.2 0.623197
13187.4 0.453912
13187.6 0.348766
13188.0 0.223951
13188.5 0.154597
13188.9 0.113182
13189.8 0.0687309
13190.6 0.0461627
13191.5 0.0334232
13192.3 0.0254469
13193.2 0.0201239
13194.9 0.0136601
13196.6 0.0101114
13198.3 0.00821868
13199.1 0.00872321
13199.6 0.0133733
13199.8 0.0301462
13199.9 0.0857917
13200.0 1.64336
13200.0 3.28043
13200.0 1.64333
13200.1 0.116077
13200.2 0.0401567
13200.4 0.0160205
13200.7 0.00842851
13201.4 0.00605454
13202.8 0.00488502
13205.6 0.00381638
13211.2 0.00273866
13216.8 0.00219894
13222.3 0.00190464
13233.5 0.00169032
13244.6 0.00182457
13255.8 0.00244124
13261.4 0.00313329
13266.9 0.00442529
13272.5 0.00718481
13275.3 0.00988933
13278.1 0.0146819
13283.7 0.0497068
13285.1 0.0806256
13285.8 0.108213
13286.4 0.151849
13286.8 0.184669
13287.1 0.229134
13287.5 0.291251
13287.8 0.378128
13288.2 0.512391
13288.5 0.724749
13288.9 1.07605
13289.2 1.64433
13289.6 2.62317
13290.0 3.27261
13290.4 2.62298
13290.8 1.64414
13291.2 0.945220
13291.7 0.585264
13292.1 0.390658
13292.6 0.278920
13293.0 0.206999
13293.5 0.160242
13294.4 0.103446
13295.3 0.0719130
13296.1 0.0530489
13297.9 0.0323339
13299.7 0.0217908
13301.5 0.0157729
13303.3 0.0119841
13305.1 0.00947275
13308.6 0.00643278
13312.2 0.00474522
13319.3 0.00305632
13326.5 0.00230296
13333.6 0.00194575
13347.9 0.00181145
13362.2 0.00229475
13369.3 0.00291787
13376.5 0.00410949
13380.0 0.00512300
13383.6 0.00666700
13387.2 0.00917490
13390.7 0.0136381
13394.3 0.0227521
13397.9 0.0461399
13399.7 0.0747808
13400.6 0.100138
13401.4 0.140837
13401.9 0.171425
13402.3 0.211853
13402.8 0.269492
13403.2 0.350866
13403.7 0.476247
13404.1 0.669630
13404.6 0.996358
13405.0 1.53228
13405.5 2.45516
13406.0 3.07193
13406.5 2.45493
13407.0 1.53207
13407.4 1.08494
13407.7 0.786963
13408.1 0.588376
13408.4 0.452849
13409.1 0.288669
13409.8 0.199510
13410.5 0.145023
13411.2 0.110404
13412.6 0.0698145
13414.0 0.0479997
13415.4 0.0351387
13418.1 0.0212757
13420.9 0.0143595
13423.7 0.0104572
13426.5 0.00803726
13429.3 0.00645412
13434.9 0.00459902
13440.4 0.00365105
13451.6 0.00301308
13462.7 0.00350455
13468.3 0.00434945
13473.8 0.00604735
13479.4 0.00976675
13482.2 0.0134408
13485.0 0.0199505
13487.8 0.0332270
13490.6 0.0667309
13491.9 0.106810
13492.6 0.142182
13493.3 0.197197
13494.0 0.292269
13494.4 0.366811
13494.7 0.468670
13495.1 0.621380
13495.4 0.853317
13495.8 1.21720
13496.1 1.77083
13496.6 2.84589
13497.0 3.54137
13497.5 2.82018
13497.9 1.77059
13498.3 1.11843
13498.7 0.748102
13499.1 0.522453
13499.6 0.384850
13500.4 0.229980
13501.2 0.151888
13502.0 0.107499
13502.9 0.0799951
13504.5 0.0493381
13506.2 0.0333934
13507.8 0.0241242
13509.5 0.0182674
13511.2 0.0143528
13514.5 0.00955034
13517.8 0.00685275
13521.1 0.00518156
13524.4 0.00407377
13531.0 0.00273816
13537.7 0.00199273
13544.3 0.00153262
13550.9 0.00122790
13564.2 0.000858545
13577.4 0.000650321
13603.9 0.000433406
13630.4 0.000328186
13657.0 0.000271396
13683.5 0.000246218
13696.7 0.000267144
13703.4 0.000386142
13706.7 0.000869094
13708.3 0.00278049
13709.2 0.0102143
13709.6 0.0374401
13709.8 0.135427
13709.9 0.414453
13709.9 1.04078
13710.0 2.37375
13710.0 6.64592
13710.0 13.2727
13710.0 6.64592
13710.1 2.37376
13710.1 1.04078
13710.1 0.414457
13710.2 0.124500
13710.5 0.0358095
13710.9 0.00954504
13711.7 0.00260634
13713.5 0.000823144
13716.9 0.000371191
13723.8 0.000256925
13737.5 0.000232300
13765.0 0.000264953
13792.4 0.000494187
13806.2 0.00128631
13813.0 0.00400353
13816.5 0.0137271
13818.2 0.0493735
13818.6 0.0838874
13819.1 0.174625
13819.3 0.292784
13819.5 0.566681
13819.6 0.893619
13819.7 1.50635
13819.8 2.21631
13819.8 3.23927
13819.9 5.05458
13819.9 6.82554
13819.9 9.08616
13820.0 14.0689
13820.0 18.1062
13820.1 14.0688
13820.1 9.08614
13820.1 6.15948
13820.2 4.19487
13820.3 2.21650
13820.3 1.34283
13820.4 0.936731
13820.6 0.491334
13820.7 0.309635
13821.0 0.152566
13821.3 0.0924497
13822.5 0.0275868
13825.0 0.0131631
13827.4 0.0284985
13828.1 0.0464566
13828.7 0.0947935
13829.0 0.157959
13829.3 0.308600
13829.4 0.497359
13829.6 0.886066
13829.7 1.30458
13829.7 1.95332
13829.8 3.42064
13829.9 4.73622
13829.9 6.53505
13829.9 10.1783
13830.0 13.0308
13830.1 10.1781
13830.1 6.53490
13830.2 4.35430
13830.2 2.94018
13830.3 1.62867
13830.4 0.969718
13830.5 0.663128
13830.7 0.353645
13830.9 0.223890
13831.2 0.109344
13831.6 0.0655778
13833.1 0.0183670
13836.1 0.00526043
13842.1 0.00163871
13854.1 0.000600555
13878.1 0.000305686
13926.0 0.000260299
13950.0 0.000291471
13973.9 0.000371826
13997.9 0.000696841
14009.9 0.00182333
14015.9 0.00609458
14018.9 0.0222751
14019.6 0.0381928
14020.4 0.0806995
14020.8 0.136320
14021.1 0.271578
14021.3 0.435438
14021.5 0.773852
14021.6 1.15710
14021.7 1.79053
14021.8 3.04791
14021.8 4.29805
14021.9 6.09097
14021.9 9.55688
14022.0 12.2214
14022.1 9.55675
14022.1 6.09088
14022.2 4.00176
14022.3 2.68254
14022.4 1.45970
14022.5 0.901014
14022.6 0.607154
14022.8 0.327026
14023.0 0.203418
14023.5 0.100349
14023.9 0.0596239
14024.8 0.0279509
14025.7 0.0163506
14029.2 0.00458365
14036.3 0.00153704
14050.4 0.000852328
14064.5 0.000867323
14078.7 0.00109275
14092.8 0.00161982
14099.9 0.00213467
14106.9 0.00304674
14114.0 0.00493186
14117.5 0.00675234
14121.0 0.00997949
14124.6 0.0166099
14128.1 0.0338030
14129.9 0.0552654
14130.8 0.0746030
14131.6 0.106238
14132.5 0.163929
14133.0 0.211182
14133.4 0.281496
14133.9 0.391706
14134.3 0.575491
14134.7 0.903020
14135.0 1.16028
14135.2 1.50872
14135.6 2.42676
14136.0 3.02004
14136.4 2.40328
14136.8 1.50858
14137.1 1.04517
14137.5 0.744651
14137.8 0.549133
14138.1 0.421743
14138.7 0.266441
14139.3 0.182287
14139.9 0.131546
14140.5 0.0997230
14141.7 0.0629841
14143.0 0.0433542
14144.2 0.0318507
14146.6 0.0195183
14149.1 0.0134133
14151.5 0.0100075
14156.4 0.00659980
14161.3 0.00513620
14166.2 0.00452682
14176.0 0.00467338
14185.7 0.00654001
14190.6 0.00863318
14195.5 0.0124374
14200.4 0.0201519
14202.9 0.0273189
14205.3 0.0392535
14207.8 0.0614501
14209.0 0.0802627
14210.2 0.109075
14211.4 0.156568
14212.0 0.191947
14212.6 0.239963
14213.3 0.306740
14213.9 0.401832
14214.5 0.539604
14215.1 0.738437
14216.0 1.18246
14217.0 1.47893
14218.0 1.18224
14218.9 0.738214
14220.0 0.437083
14221.0 0.277553
14222.0 0.187835
14223.1 0.134848
14224.1 0.100835
14225.1 0.0782614
14227.2 0.0509404
14229.3 0.0356943
14231.3 0.0264048
14235.5 0.0161844
14239.6 0.0109698
14243.7 0.00797209
14247.9 0.00608616
14252.0 0.00483050
14260.3 0.00331523
14268.5 0.00248287
14285.1 0.00170161
14301.6 0.00150525
14309.9 0.00159717
14318.2 0.00190213
14326.4 0.00268074
14330.6 0.00349190
14334.7 0.00497502
14338.8 0.00810105
14340.9 0.0111325
14343.0 0.0164368
14345.0 0.0271225
14346.1 0.0369709
14347.1 0.0534639
14348.1 0.0845524
14348.7 0.111304
14349.2 0.151790
14349.7 0.219910
14350.0 0.271715
14350.2 0.339728
14350.5 0.438938
14350.7 0.582715
14351.0 0.795309
14351.2 1.09417
14351.6 1.75563
14352.0 2.18001
14352.2 2.04313
14352.4 1.73747
14352.8 1.09405
14353.2 0.624495
14353.7 0.384841
14354.1 0.256109
14354.6 0.182510
14355.0 0.135278
14355.5 0.104064
14356.4 0.0671947
14357.3 0.0467389
14358.1 0.0345054
14359.9 0.0210214
14361.7 0.0142063
14363.5 0.0102943
14365.3 0.00784425
14367.1 0.00621669
14370.7 0.00423453
14374.2 0.00312668
14381.4 0.00199784
14388.6 0.00146320
14395.7 0.00117164
14410.0 0.000890250
14424.3 0.000781603
14438.6 0.000754902
14467.2 0.000864519
14495.8 0.00125701
14510.1 0.00167784
14524.4 0.00245223
14531.6 0.00310294
14538.8 0.00408658
14545.9 0.00567466
14553.1 0.00848104
14560.2 0.0141644
14563.8 0.0194815
14567.4 0.0284687
14570.9 0.0455488
14572.7 0.0604598
14574.5 0.0837751
14576.3 0.123496
14577.2 0.154622
14578.1 0.197879
14579.0 0.261464
14579.9 0.356116
14580.8 0.502662
14581.7 0.730551
14582.8 1.17009
14584.0 1.46358
14585.2 1.16985
14586.3 0.730319
14587.3 0.486460
14588.3 0.335852
14589.3 0.241863
14590.2 0.181454
14592.1 0.111442
14594.1 0.0748446
14596.0 0.0534768
14597.9 0.0401138
14601.8 0.0249317
14605.7 0.0169723
14609.5 0.0123175
14613.4 0.00935810
14617.3 0.00736191
14625.0 0.00491935
14632.7 0.00354245
14640.4 0.00269210
14648.2 0.00213225
14663.6 0.00146655
14679.1 0.00110942
14694.5 0.000919443
14702.3 0.000931942
14706.1 0.00123542
14708.0 0.00252988
14709.0 0.00763848
14709.5 0.0266092
14709.7 0.0925002
14709.9 0.293374
14709.9 0.782384
14709.9 1.63682
14710.0 6.52794
14710.0 13.0395
14710.0 6.52794
14710.1 1.24416
14710.1 0.452268
14710.2 0.138445
14710.4 0.0388303
14710.8 0.0110166
14711.6 0.00341836
14713.2 0.00142459
14716.3 0.000900718
14722.5 0.000744846
14735.0 0.000676721
14760.0 0.000662618
14785.0 0.000749347
14797.5 0.000847135
14803.7 0.000931330
14806.9 0.00104532
14808.4 0.00136191
14809.2 0.00250433
14809.6 0.00665623
14809.8 0.0215374
14809.9 0.0686909
14810.0 1.19481
14810.0 2.38864
14810.0 1.19481
14810.1 0.0811324
14810.2 0.0258151
14810.4 0.00830024
14810.7 0.00293236
14811.4 0.00150647
14812.8 0.00115795
14815.6 0.00111043
14821.2 0.00119800
14832.3 0.00150630
14843.4 0.00202328
14854.6 0.00295243
14865.7 0.00486566
14876.8 0.00981100
14882.4 0.0159011
14885.2 0.0213492
14888.0 0.0301650
14890.8 0.0458093
14892.1 0.0584637
14893.5 0.0769596
14894.9 0.105257
14896.3 0.150881
14897.7 0.228427
14899.1 0.363308
14900.6 0.581536
14902.0 0.725460
14903.5 0.579797
14904.9 0.363167
14905.9 0.260754
14906.9 0.191874
14908.8 0.112371
14910.8 0.0724111
14912.7 0.0501584
14914.7 0.0366704
14916.6 0.0279347
14920.5 0.0177548
14924.4 0.0122721
14928.3 0.00900942
14936.1 0.00547847
14943.9 0.00371532
14951.7 0.00271525
14959.5 0.00209522
14967.3 0.00168634
14982.8 0.00120331
14998.4 0.000949419
15029.6 0.000744937
15060.8 0.000763673
15076.4 0.000857296
15091.9 0.00104631
15107.5 0.00143412
15115.3 0.00179343
15123.1 0.00240708
15130.9 0.00362829
15134.8 0.00478290
15138.7 0.00680065
15142.6 0.0109206
15146.5 0.0216724
15148.4 0.0353223
15150.4 0.0690510
15151.4 0.108669
15151.9 0.142726
15152.3 0.194152
15152.8 0.280677
15153.1 0.344866
15153.3 0.432424
15153.6 0.561086
15153.8 0.739837
15154.0 1.00175
15154.3 1.38434
15154.6 2.22526
15155.0 2.76540
15155.2 2.59019
15155.4 2.20095
15155.7 1.38429
15156.0 1.00174
15156.2 0.739876
15156.7 0.441214
15157.2 0.285515
15157.6 0.199869
15158.1 0.146485
15158.6 0.112496
15159.5 0.0724546
15160.5 0.0506080
15161.4 0.0375811
15163.3 0.0236027
15165.2 0.0166515
15167.1 0.0127940
15170.9 0.00901385
15174.7 0.00752795
15178.5 0.00709760
15186.0 0.00812925
15193.6 0.0119740
15197.4 0.0158865
15201.2 0.0226159
15205.0 0.0354251
15206.9 0.0465771
15208.8 0.0638927
15210.7 0.0930310
15211.6 0.115432
15212.6 0.146150
15213.5 0.190476
15214.5 0.255001
15215.4 0.353350
15216.3 0.500115
15217.7 0.800063
15219.0 1.00004
15220.3 0.799852
15221.7 0.499879
15222.5 0.362139
15223.4 0.267702
15225.1 0.158622
15226.9 0.102985
15228.6 0.0716971
15230.3 0.0526023
15232.1 0.0401730
15235.5 0.0255867
15239.0 0.0176956
15242.4 0.0129854
15249.4 0.00786937
15256.3 0.00529526
15263.2 0.00382310
15270.1 0.00290081
15277.1 0.00228438
15290.9 0.00153552
15304.7 0.00111465
15318.6 0.000853775
15332.4 0.000680853
15360.1 0.000472428
15387.8 0.000356493
15443.2 0.000240969
15498.6 0.000194301
15554.0 0.000189945
15609.3 0.000284912
15637.0 0.000661732
15650.9 0.00209122
15654.3 0.00352911
15657.8 0.00750419
15659.5 0.0128457
15661.3 0.0271754
15662.1 0.0458352
15663.0 0.0923560
15663.4 0.149469
15663.9 0.275845
15664.1 0.411160
15664.3 0.653326
15664.4 0.868796
15664.5 1.19744
15664.6 1.71543
15664.7 2.47148
15664.9 3.93608
15665.0 4.94053
15665.1 3.93596
15665.3 2.47141
15665.4 1.54941
15665.5 1.03007
15665.7 0.721914
15665.8 0.529508
15666.1 0.316275
15666.3 0.208768
15666.6 0.145864
15666.9 0.108637
15667.4 0.0668506
15668.4 0.0324422
15669.5 0.0192177
15671.6 0.00904822
15673.6 0.00530147
15677.8 0.00253623
15682.0 0.00155270
15698.8 0.000626340
15715.5 0.000529189
15732.2 0.000625200
15740.6 0.000744108
15749.0 0.000940732
15757.3 0.00127559
15765.7 0.00189426
15769.9 0.00241752
15774.1 0.00321362
15778.3 0.00451660
15782.4 0.00685222
15786.6 0.0117141
15790.8 0.0245563
15792.9 0.0408380
15794.0 0.0559136
15795.0 0.0807962
15796.0 0.127203
15796.6 0.166244
15797.1 0.225841
15797.6 0.325032
15797.9 0.398054
15798.1 0.496847
15798.4 0.633692
15798.7 0.827594
15798.9 1.10678
15799.2 1.50680
15799.6 2.41893
15800.0 3.00630
15800.4 2.39566
15800.8 1.50664
15801.3 0.912738
15801.7 0.586466
15802.1 0.401246
15802.5 0.291342
15803.0 0.218806
15803.4 0.169912
15804.3 0.111036
15805.1 0.0777220
15806.0 0.0575544
15807.7 0.0350583
15809.4 0.0235664
15811.1 0.0169267
15812.8 0.0127504
15814.5 0.00995511
15817.9 0.00656389
15821.4 0.00466406
15824.8 0.00349423
15828.2 0.00272524
15835.0 0.00180420
15841.9 0.00129755
15848.7 0.000989215
15855.5 0.000788861
15869.2 0.000554464
15882.9 0.000431368
15910.2 0.000329031
15937.6 0.000333001
15951.2 0.000379639
15964.9 0.000485120
15978.6 0.000730175
15985.4 0.000980900
15992.2 0.00144164
15999.1 0.00242970
16002.5 0.00341141
16005.9 0.00518487
16009.3 0.00892993
16012.7 0.0191322
16014.5 0.0325637
16016.2 0.0674542
16017.0 0.111043
16017.9 0.213222
16018.3 0.327624
16018.5 0.419125
16018.7 0.553342
16018.9 0.772227
16019.2 1.11633
16019.4 1.71123
16019.5 2.19166
16019.6 2.83208
16019.8 4.53371
16020.0 5.66015
16020.2 4.53356
16020.4 2.83193
16020.6 1.71112
16020.9 1.09544
16021.1 0.747575
16021.3 0.538005
16021.5 0.403874
16021.7 0.313527
16022.2 0.205692
16022.6 0.143837
16023.0 0.106769
16023.9 0.0650768
16024.8 0.0437522
16025.7 0.0314212
16027.4 0.0184635
16029.1 0.0121295
16030.9 0.00860465
16034.4 0.00500003
16037.9 0.00328522
16041.3 0.00234281
16048.3 0.00139427
16055.3 0.000952103
16062.2 0.000714018
16076.2 0.000490767
16090.1 0.000422064
16104.0 0.000483732
16118.0 0.00108664
16124.9 0.00356829
16128.4 0.0131910
16130.2 0.0491961
16130.6 0.0846521
16131.0 0.175244
16131.3 0.291165
16131.5 0.573968
16131.6 0.897703
16131.7 1.58471
16131.8 2.33138
16131.8 3.40616
16131.9 5.31036
16131.9 9.42422
16132.0 14.7077
16132.0 18.8851
16132.1 14.7075
16132.1 9.42415
16132.1 6.46734
16132.2 4.83184
16132.2 2.69409
16132.3 1.68255
16132.4 1.14103
16132.5 0.618363
16132.6 0.397498
16132.9 0.194592
16133.2 0.116884
16134.3 0.0321520
16136.5 0.00854552
16140.9 0.00235209
16149.6 0.000770339
16167.1 0.000391914
16184.6 0.000369745
16202.1 0.000451272
16219.6 0.000680309
16228.4 0.000919679
16237.1 0.00136088
16245.9 0.00230273
16250.3 0.00323211
16254.6 0.00489830
16259.0 0.00836635
16263.4 0.0175278
16265.6 0.0291824
16267.8 0.0578721
16268.9 0.0913048
16269.4 0.119843
16270.0 0.162743
16270.5 0.234056
16271.1 0.357631
16271.3 0.460418
16271.6 0.601905
16271.9 0.806053
16272.1 1.09936
16272.6 1.76090
16273.0 2.20272
16273.4 1.76079
16273.9 1.09925
16274.3 0.690717
16274.7 0.456019
16275.1 0.317965
16275.5 0.232341
16275.9 0.176373
16276.3 0.138079
16277.1 0.0908559
16278.0 0.0641230
16278.8 0.0476050
16280.4 0.0292429
16282.1 0.0197171
16283.7 0.0141900
16285.3 0.0107032
16287.0 0.00837626
16290.2 0.00552700
16293.5 0.00393141
16296.8 0.00294622
16300.1 0.00229561
16306.6 0.00151602
16313.2 0.00108529
16319.7 0.000822492
16326.2 0.000650653
16339.3 0.000446433
16352.4 0.000334694
16378.6 0.000223299
16404.8 0.000172595
16431.0 0.000146698
16483.4 0.000127559
16535.7 0.000132800
16588.1 0.000166833
16614.3 0.000209517
16640.5 0.000309162
16666.7 0.000719044
16679.7 0.00210384
16686.3 0.00725457
16687.9 0.0124142
16689.6 0.0264586
16690.4 0.0452320
16691.2 0.0949363
16691.6 0.158041
16692.0 0.313248
16692.2 0.498923
16692.4 0.879424
16692.5 1.24939
16692.6 1.89268
16692.7 3.11491
16692.8 4.13799
16692.8 5.88654
16692.9 9.47131
16693.0 11.7862
16693.1 9.47117
16693.2 5.88645
16693.2 4.13795
16693.3 3.11490
16693.4 1.89269
16693.5 1.24942
16693.6 0.879456
16693.8 0.498961
16694.0 0.319597
16694.4 0.162662
16694.8 0.0981991
16695.6 0.0467064
16696.4 0.0274909
16698.0 0.0129499
16699.6 0.00770300
16706.0 0.00259104
16712.5 0.00186431
16718.9 0.00201237
16725.3 0.00291449
16728.5 0.00392087
16731.7 0.00578891
16735.0 0.00978200
16738.2 0.0206551
16741.4 0.0718056
16742.2 0.117758
16743.0 0.224612
16743.4 0.341262
16743.6 0.435848
16743.8 0.574076
16744.0 0.785526
16744.2 1.12643
16744.4 1.70594
16744.6 2.72135
16744.8 4.35220
16745.0 5.44732
16745.2 4.35206
16745.4 2.72121
16745.7 1.56288
16745.9 0.951599
16746.2 0.627891
16746.4 0.447301
16746.7 0.329674
16746.9 0.252444
16747.4 0.162409
16747.9 0.112216
16748.4 0.0825690
16749.4 0.0500345
16750.4 0.0334260
16751.3 0.0239980
16753.3 0.0140992
16755.3 0.00931258
16757.2 0.00664092
16761.2 0.00392116
16765.1 0.00263666
16769.1 0.00193228
16776.9 0.00123320
16784.8 0.000921424
16792.7 0.000770380
16808.5 0.000694227
16824.2 0.000837105
16832.1 0.00103430
16840.0 0.00141648
16847.9 0.00224727
16851.8 0.00307362
16855.8 0.00457025
16859.7 0.00771863
16863.6 0.0162792
16867.6 0.0567280
16868.6 0.0931039
16869.5 0.178333
16870.0 0.274695
16870.3 0.354245
16870.5 0.466741
16870.8 0.648214
16871.0 0.933206
16871.3 1.44928
16871.4 1.83001
16871.5 2.33322
16871.8 3.76461
16872.0 4.66859
16872.3 3.70347
16872.5 2.33310
16872.8 1.32022
16873.1 0.808859
16873.4 0.536182
16873.7 0.378299
16873.9 0.280021
16874.2 0.215148
16874.8 0.137986
16875.4 0.0958126
16876.0 0.0703578
16877.1 0.0427171
16878.3 0.0286201
16879.4 0.0205503
16881.8 0.0121756
16884.1 0.00811820
16886.4 0.00587364
16891.0 0.00360892
16895.6 0.00257615
16900.3 0.00205394
16909.5 0.00170591
16918.8 0.00197194
16923.4 0.00242963
16928.0 0.00335345
16932.7 0.00539814
16935.0 0.00744513
16937.3 0.0111258
16939.6 0.0188318
16941.9 0.0392180
16943.1 0.0652937
16944.2 0.128945
16944.8 0.203335
16945.1 0.266871
16945.4 0.364677
16945.7 0.525342
16946.0 0.811955
16946.1 1.05312
16946.3 1.37614
16946.4 1.84245
16946.6 2.54783
16946.8 4.09123
16947.0 5.09575
16947.2 4.09109
16947.4 2.54770
16947.7 1.49211
16947.9 0.929623
16948.2 0.622893
16948.4 0.442643
16948.7 0.329301
16948.9 0.253940
16949.4 0.163664
16949.9 0.113985
16950.4 0.0838654
16951.4 0.0508285
16952.4 0.0340992
16953.4 0.0244866
16955.4 0.0144747
16957.4 0.00959262
16959.4 0.00687554
16963.4 0.00409285
16967.4 0.00277022
16971.4 0.00204261
16979.4 0.00130961
16987.4 0.000968328
16995.4 0.000786105
17011.3 0.000619397
17043.2 0.000573352
17075.2 0.000712100
17091.1 0.000860595
17107.1 0.00109831
17123.1 0.00149411
17139.0 0.00220709
17147.0 0.00279681
17155.0 0.00367651
17171.0 0.00748036
17179.0 0.0121748
17182.9 0.0163844
17186.9 0.0232111
17190.9 0.0353061
17192.9 0.0451737
17194.9 0.0595659
17196.9 0.0817864
17198.9 0.117627
17200.9 0.179332
17201.9 0.226138
17202.9 0.287170
17205.0 0.459984
17207.0 0.574444
17209.1 0.458947
17211.1 0.287034
17213.5 0.165045
17215.8 0.102436
17218.2 0.0683877
17220.5 0.0485550
17222.9 0.0360664
17225.2 0.0278158
17229.9 0.0179422
17234.7 0.0125053
17239.4 0.00921432
17248.8 0.00561404
17258.2 0.00379371
17267.6 0.00275309
17277.0 0.00210483
17286.4 0.00167811
17305.3 0.00118520
17324.1 0.000983021
17333.5 0.00100543
17342.9 0.00126466
17352.3 0.00295731
17357.0 0.00951879
17358.2 0.0159400
17359.4 0.0326484
17360.0 0.0537966
17360.6 0.105190
17360.9 0.165140
17361.2 0.287396
17361.3 0.409396
17361.5 0.603321
17361.6 0.987647
17361.7 1.73766
17361.9 2.74462
17362.0 3.47494
17362.1 2.74455
17362.3 1.73761
17362.3 1.23234
17362.4 0.920151
17362.6 0.536537
17362.8 0.344666
17362.9 0.238177
17363.3 0.132149
17363.6 0.0846393
17364.3 0.0424717
17365.0 0.0257091
17366.3 0.0124272
17367.7 0.00742845
17373.1 0.00231820
17383.9 0.000945107
17405.5 0.000569698
17448.7 0.000545407
17470.3 0.000693306
17481.1 0.000857443
17491.9 0.00116395
17502.7 0.00181995
17508.1 0.00246757
17513.5 0.00363284
17518.9 0.00605933
17524.3 0.0125286
17527.0 0.0208179
17529.7 0.0414920
17531.0 0.0658265
17531.7 0.0870179
17532.4 0.119502
17533.0 0.174522
17533.4 0.216788
17533.7 0.273403
17534.0 0.356287
17534.4 0.473839
17534.7 0.655022
17535.0 0.917479
17535.5 1.46352
17536.0 1.82574
17536.5 1.46341
17537.0 0.917382
17537.4 0.587929
17537.8 0.397215
17538.3 0.279516
17538.7 0.206931
17539.6 0.124516
17540.4 0.0829464
17541.3 0.0588452
17542.2 0.0440094
17543.9 0.0272050
17545.6 0.0184593
17547.4 0.0133968
17549.1 0.0101919
17550.8 0.00803723
17554.3 0.00540736
17557.8 0.00393568
17561.2 0.00302989
17564.7 0.00243521
17571.6 0.00173340
17578.5 0.00136167
17592.4 0.00103984
17606.2 0.00100104
17620.1 0.00125475
17633.9 0.00280526
17640.9 0.00864723
17642.6 0.0144352
17644.3 0.0301463
17645.2 0.0509518
17646.1 0.104200
17646.5 0.171817
17646.9 0.328879
17647.1 0.507184
17647.4 0.850276
17647.5 1.18018
17647.6 1.72654
17647.7 2.68973
17647.8 4.37907
17647.9 6.91208
17648.0 8.75381
17648.1 6.91194
17648.2 4.37899
17648.3 3.21093
17648.3 2.46927
17648.5 1.54728
17648.6 1.01089
17648.7 0.724186
17649.0 0.411947
17649.2 0.268524
17649.7 0.137956
17650.2 0.0838288
17651.2 0.0406328
17652.1 0.0241589
17654.1 0.0117422
17656.1 0.00723504
17663.9 0.00294552
17671.8 0.00250185
17679.6 0.00296101
17687.5 0.00442662
17691.4 0.00595319
17695.3 0.00870717
17699.2 0.0144054
17703.2 0.0291490
17705.1 0.0473195
17706.1 0.0636281
17707.1 0.0900750
17708.1 0.136929
17708.5 0.175037
17709.0 0.230895
17709.5 0.316677
17710.0 0.455711
17710.5 0.693759
17711.0 1.11174
17711.5 1.78573
17712.0 2.22339
17712.5 1.77151
17713.0 1.11161
17713.3 0.821049
17713.6 0.616954
17714.2 0.375926
17714.9 0.246904
17715.5 0.174075
17716.1 0.128252
17716.7 0.0986271
17717.9 0.0631969
17719.2 0.0439145
17720.4 0.0323092
17722.9 0.0196670
17725.3 0.0133086
17727.8 0.00967338
17730.2 0.00740574
17732.7 0.00589923
17737.6 0.00409160
17742.5 0.00309864
17752.4 0.00213191
17762.2 0.00173686
17772.0 0.00159588
17791.7 0.00174440
17811.4 0.00249893
17821.2 0.00330960
17831.1 0.00476799
17840.9 0.00772365
17845.8 0.0104707
17850.7 0.0150878
17855.7 0.0237162
17858.1 0.0311313
17860.6 0.0426196
17863.0 0.0616662
17864.3 0.0761647
17865.5 0.0961202
17866.7 0.124361
17868.0 0.165458
17869.2 0.226583
17870.4 0.316455
17872.2 0.506459
17874.0 0.632057
17875.8 0.505214
17877.6 0.316352
17879.1 0.211466
17880.5 0.146773
17882.0 0.105940
17883.5 0.0795694
17886.4 0.0490491
17889.4 0.0330916
17892.3 0.0238172
17895.3 0.0179892
17901.2 0.0114047
17907.1 0.00799355
17913.0 0.00604563
17924.8 0.00416397
17936.6 0.00370511
17948.4 0.00476606
17954.3 0.00677063
17960.1 0.0124583
17963.1 0.0198691
17966.0 0.0384036
17967.5 0.0602945
17968.3 0.0791890
17969.0 0.108081
17969.7 0.156704
17970.5 0.243547
17970.8 0.315742
17971.2 0.421219
17971.6 0.578828
17971.9 0.806373
17972.5 1.29608
17973.0 1.61519
17973.5 1.28629
17974.1 0.806257
17974.4 0.599931
17974.7 0.453765
17975.3 0.279198
17976.0 0.184723
17976.6 0.130947
17977.3 0.0969459
17977.9 0.0748655
17979.1 0.0485106
17980.4 0.0339663
17981.7 0.0252494
17984.2 0.0156720
17986.7 0.0108250
17989.3 0.00806383
17994.3 0.00520398
17999.4 0.00385947
18004.5 0.00316957
18014.6 0.00272149
18024.7 0.00316741
18029.8 0.00389165
18034.8 0.00533453
18039.9 0.00848856
18042.4 0.0115789
18045.0 0.0170457
18050.0 0.0555073
18051.3 0.0879241
18051.9 0.115640
18052.6 0.158600
18053.2 0.231354
18053.5 0.287194
18053.8 0.361764
18054.2 0.470994
18054.5 0.625360
18054.8 0.863293
18055.1 1.20671
18055.6 1.93705
18056.0 2.40908
18056.2 2.26482
18056.5 1.92001
18056.9 1.20657
18057.3 0.827785
18057.6 0.590539
18058.0 0.432316
18058.3 0.329852
18059.0 0.206541
18059.7 0.140437
18060.4 0.101365
18061.1 0.0765004
18062.4 0.0479563
18063.8 0.0328716
18065.2 0.0239625
18067.9 0.0144401
18070.7 0.00969464
18073.5 0.00700098
18076.2 0.00532481
18079.0 0.00421333
18084.5 0.00286419
18090.0 0.00210855
18101.0 0.00132672
18112.1 0.000945507
18123.1 0.000727646
18145.1 0.000495460
18167.2 0.000377273
18189.3 0.000307810
18233.4 0.000234443
18277.5 0.000205089
18321.6 0.000211298
18365.7 0.000335008
18387.8 0.000839549
18398.8 0.00280589
18404.3 0.0103454
18405.7 0.0178659
18407.1 0.0382861
18407.8 0.0650573
18408.4 0.134145
18408.8 0.220773
18409.1 0.417725
18409.3 0.629917
18409.5 1.04649
18409.6 1.44571
18409.6 2.00707
18409.7 3.05968
18409.8 4.68840
18409.9 7.63788
18410.0 9.39512
18410.1 7.63775
18410.2 4.68832
18410.3 3.05965
18410.4 2.09742
18410.4 1.44571
18410.5 1.08245
18410.7 0.647051
18410.9 0.436696
18411.2 0.228082
18411.5 0.141193
18412.2 0.0686445
18412.9 0.0407293
18414.2 0.0189871
18415.5 0.0110280
18420.9 0.00299255
18431.5 0.000910613
18452.9 0.000404187
18474.3 0.000349717
18495.6 0.000397352
18517.0 0.000555733
18527.6 0.000722673
18538.3 0.00102916
18549.0 0.00168077
18554.3 0.00232254
18559.7 0.00347316
18565.0 0.00586882
18570.3 0.0122386
18573.0 0.0203709
18575.7 0.0405418
18577.0 0.0642438
18577.7 0.0846276
18578.4 0.115633
18579.0 0.167610
18579.7 0.259566
18580.0 0.336849
18580.4 0.445581
18580.7 0.605548
18581.0 0.840198
18581.5 1.34696
18582.0 1.67469
18582.5 1.33609
18583.0 0.840111
18583.5 0.496599
18584.1 0.313524
18584.6 0.211980
18585.2 0.151589
18585.7 0.113291
18586.2 0.0876667
18587.3 0.0569847
18588.4 0.0397974
18589.5 0.0293426
18591.6 0.0178777
18593.8 0.0120222
18595.9 0.00866658
18598.1 0.00655903
18600.2 0.00515020
18604.5 0.00344119
18608.8 0.00248758
18613.2 0.00190305
18617.5 0.00152083
18626.1 0.00106876
18634.7 0.000826913
18651.9 0.000605251
18669.1 0.000542832
18686.4 0.000600548
18703.6 0.00108272
18712.2 0.00295855
18716.5 0.0100835
18717.6 0.0171467
18718.7 0.0358765
18719.2 0.0602247
18719.8 0.121775
18720.0 0.195432
18720.3 0.361627
18720.4 0.543384
18720.6 0.860521
18720.7 1.51937
18720.8 2.17809
18720.8 3.09337
18720.9 4.92263
18721.0 6.20147
18721.1 4.92256
18721.2 3.09332
18721.3 2.06416
18721.3 1.38057
18721.5 0.739532
18721.6 0.452081
18721.8 0.302744
18722.1 0.159037
18722.4 0.0989528
18723.0 0.0484428
18723.6 0.0289547
18726.0 0.00812713
18730.9 0.00249285
18740.6 0.00106096
18760.0 0.000815715
18779.4 0.000970306
18798.8 0.00135547
18808.5 0.00168981
18818.2 0.00219689
18827.9 0.00301416
18837.6 0.00444767
18847.3 0.00731938
18852.2 0.00997410
18857.0 0.0144258
18861.9 0.0227268
18864.3 0.0298662
18866.7 0.0408637
18869.2 0.0591362
18870.4 0.0729645
18871.6 0.0919519
18872.8 0.119009
18874.0 0.157986
18875.2 0.215735
18876.4 0.301143
18878.2 0.482204
18880.0 0.601963
18881.8 0.481017
18883.6 0.301049
18885.2 0.193985
18886.8 0.130553
18888.4 0.0923145
18890.0 0.0681699
18893.2 0.0411331
18896.5 0.0273768
18899.7 0.0195176
18902.9 0.0146350
18909.3 0.00916718
18915.8 0.00635910
18922.2 0.00474805
18935.1 0.00312812
18948.0 0.00249601
18960.8 0.00248791
18967.3 0.00284494
18973.7 0.00396065
18976.9 0.00546186
18980.2 0.00947083
18981.8 0.0146811
18983.4 0.0280940
18984.2 0.0447400
18985.0 0.0834164
18985.4 0.125635
18985.8 0.209926
18986.0 0.286532
18986.2 0.410140
18986.4 0.620581
18986.6 0.995009
18986.8 1.58655
18987.0 1.98874
18987.2 1.58651
18987.4 0.995010
18987.6 0.620627
18987.8 0.410220
18988.0 0.286637
18988.2 0.210055
18988.6 0.125805
18989.0 0.0836278
18989.8 0.0450329
18990.6 0.0286107
18992.2 0.0153213
18993.8 0.0102568
18997.0 0.00660183
19000.2 0.00553287
19006.6 0.00561916
19013.0 0.00732139
19019.4 0.0113841
19025.8 0.0218627
19029.0 0.0342183
19030.6 0.0448404
19032.2 0.0612844
19033.8 0.0885003
19034.6 0.109178
19035.4 0.137587
19036.2 0.177698
19037.0 0.235905
19037.8 0.322196
19038.6 0.449920
19039.8 0.720215
19041.0 0.900626
19041.6 0.847479
19042.2 0.720081
19043.4 0.449771
19044.3 0.304360
19045.2 0.213565
19046.2 0.155212
19047.1 0.117260
19049.0 0.0727311
19050.8 0.0491833
19052.7 0.0353855
19054.6 0.0266559
19058.3 0.0167063
19062.1 0.0114540
19065.8 0.00835969
19073.3 0.00505122
19080.7 0.00340601
19088.2 0.00247032
19095.7 0.00188538
19103.2 0.00149433
19118.1 0.00101768
19133.1 0.000747312
19162.9 0.000463922
19192.8 0.000323289
19222.7 0.000241986
19282.5 0.000154548
19342.3 0.000109882
19402.1 8.34967E-05
19521.7 5.45511E-05
19641.3 3.94773E-05
19760.8 3.04501E-05
20000.0 2.03869E-05
20000.0 0.0510468
25000.0 0.0431579
30000.0 0.0378106
35000.0 0.0339378
40000.0 0.0309583
50000.0 0.0267549
60000.0 0.0239505
70000.0 0.0218686
80000.0 0.0202626
99999.9 0.0179177
100000 0.0179180
125000 0.0151290
150000 0.0136480
167100 0.0128880
167105 0.0128876
200000 0.0100160
225000 0.00925790
250000 0.00875330
300000 0.00811340
350000 0.00773590
400000 0.00751090
450000 0.00738860
500000 0.00734160
600000 0.00740260
700000 0.00760450
800000 0.00789530
900000 0.00828180
1.00000E+06 0.00871210
1.21780E+06 0.00988200
1.22790E+06 0.00993470
1.26590E+06 0.00994410
1.26593E+06 0.00994410
1.39130E+06 0.00995600
1.39133E+06 0.00995601
1.43030E+06 0.00996990
1.43031E+06 0.00997039
1.43080E+06 0.00998860
1.43082E+06 0.00998861
1.48700E+06 0.0100220
1.48702E+06 0.0100220
1.54260E+06 0.0100680
1.54890E+06 0.0100730
1.54910E+06 0.0100730
1.56970E+06 0.0100900
1.56972E+06 0.0100899
1.75000E+06 0.00918510
2.01560E+06 0.00778940
2.25000E+06 0.00688930
2.50000E+06 0.00582900
2.75000E+06 0.00520260
3.00000E+06 0.00439800
3.25000E+06 0.00363550
3.50000E+06 0.00292380
3.75000E+06 0.00228880
4.05970E+06 0.00169200
4.25000E+06 0.00140930
4.50000E+06 0.00111130
4.75000E+06 0.000877060
5.00000E+06 0.000751530
5.25000E+06 0.000661420
5.50000E+06 0.000571310
5.75000E+06 0.000481200
6.00000E+06 0.000391090
6.30030E+06 0.000331130
6.43110E+06 0.000305010
6.75000E+06 0.000261950
7.00000E+06 0.000231170
7.25000E+06 0.000221940
7.59640E+06 0.000213070
7.75000E+06 0.000212730
8.00000E+06 0.000212190
8.25000E+06 0.000245340
8.50000E+06 0.000278490
8.84190E+06 0.000323830
8.84195E+06 0.000323836
9.00000E+06 0.000344790
9.25000E+06 0.000415000
9.50000E+06 0.000485360
9.75000E+06 0.000558450
1.00000E+07 0.000631530
1.02500E+07 0.000701000
1.05000E+07 0.000770570
1.07500E+07 0.000842020
1.09270E+07 0.000892610
1.12500E+07 0.000940970
1.15000E+07 0.000968470
1.17500E+07 0.000995970
1.20000E+07 0.00102350
1.22500E+07 0.00102350
1.25000E+07 0.00102350
1.27500E+07 0.00102350
1.30000E+07 0.00102350
1.32500E+07 0.00101800
1.35000E+07 0.00101250
1.37500E+07 0.00100710
1.40000E+07 0.00100160
1.42500E+07 0.000998830
1.45000E+07 0.000996050
1.47500E+07 0.000993260
1.50000E+07 0.000990470
1.52500E+07 0.000991750
1.55000E+07 0.000993030
1.57500E+07 0.000994310
1.60000E+07 0.000995580
1.63680E+07 0.00100300
1.63680E+07 0.00100300
1.65000E+07 0.00100570
1.67500E+07 0.00101080
1.70000E+07 0.00101580
1.72500E+07 0.00102410
1.75000E+07 0.00103230
1.77500E+07 0.00104060
1.80000E+07 0.00104890
1.82500E+07 0.00105990
1.85000E+07 0.00107090
1.87500E+07 0.00108190
1.90000E+07 0.00109290
1.92500E+07 0.00110630
1.95000E+07 0.00111980
1.97500E+07 0.00113320
2.00000E+07 0.00114660