Hg-204(n,g) ENDF/B-VII.1
Energy(eV) XS(b)
1.00000E-05 0.866603
1.50000E-05 0.835741
2.00000E-05 0.814513
2.23485E-05 0.806466
2.85228E-05 0.789062
3.46970E-05 0.775354
5.00000E-05 0.750428
5.93940E-05 0.738962
7.96970E-05 0.719783
0.000100000 0.705321
0.000108788 0.700028
0.000154394 0.678449
0.000200000 0.662926
0.000207577 0.660725
0.000306366 0.638118
0.000405155 0.622366
0.000500000 0.610768
0.000650155 0.596591
0.000800310 0.585606
0.00100000 0.574056
0.00129531 0.560924
0.00159062 0.550715
0.00200000 0.539550
0.00258563 0.527299
0.00317125 0.517759
0.00408563 0.506159
0.00500000 0.497099
0.00633250 0.486706
0.00816625 0.475761
0.0100000 0.467219
0.0126550 0.457483
0.0163275 0.447176
0.0200000 0.439136
0.0253000 0.430000
0.0376500 0.420593
0.0500000 0.414006
0.0558165 0.411478
0.0710748 0.405982
0.0863330 0.401612
0.100000 0.398342
0.147366 0.389839
0.200000 0.383270
0.269432 0.376967
0.384716 0.369570
0.500000 0.364219
0.513565 0.363677
0.756783 0.355915
1.00000 0.350438
1.00183 0.350403
1.49010 0.342747
1.97836 0.337384
2.00000 0.337180
2.96571 0.329868
3.93142 0.324735
5.00000 0.320419
6.41878 0.315996
7.83755 0.312504
10.0000 0.308296
12.8249 0.304057
15.6498 0.300708
20.0000 0.296631
25.6372 0.292561
31.2744 0.289343
40.6372 0.285157
50.0000 0.281886
62.5236 0.278402
81.2618 0.274371
100.000 0.271221
125.022 0.267872
162.511 0.263991
200.000 0.260960
250.019 0.257738
375.016 0.251989
500.013 0.247987
750.007 0.242455
1000.00 0.238605
1281.25 0.208688
1562.50 0.187460
2000.00 0.164042
2125.00 0.158753
2687.50 0.139827
3250.00 0.126175
4375.00 0.107446
5000.00 0.0999637
5500.00 0.0949439
6625.00 0.0858572
7750.00 0.0788780
10000.0 0.0687253
12812.5 0.0616700
15625.0 0.0565464
20000.0 0.0507630
21250.0 0.0494356
26875.0 0.0446133
32500.0 0.0410573
43750.0 0.0360552
50000.0 0.0340112
55000.0 0.0326235
77500.0 0.0280824
100000 0.0251219
140000 0.0238401
180000 0.0229256
200000 0.0225527
260000 0.0216503
340000 0.0207649
420000 0.0200931
438659 0.0180007
438710 0.0179955
448790 0.0169905
458871 0.0160620
461708 0.0158135
479032 0.0144065
503417 0.0127060
519355 0.0117426
551708 0.0100779
559677 0.00971882
600000 0.00815041
700000 0.00794026
800000 0.00776261
945191 0.00814308
1.00000E+06 0.00827584
1.13388E+06 0.00774532
1.13388E+06 0.00774531
1.13390E+06 0.00774524
1.16292E+06 0.00764272
1.19195E+06 0.00754400
1.25000E+06 0.00735719
1.37500E+06 0.00747576
1.50000E+06 0.00758568
1.75000E+06 0.00810466
1.83764E+06 0.00827648
1.83764E+06 0.00827648
1.85051E+06 0.00830131
1.86045E+06 0.00832042
1.86046E+06 0.00832043
1.87823E+06 0.00835447
1.91882E+06 0.00843150
1.95733E+06 0.00850374
1.95733E+06 0.00850374
1.99884E+06 0.00858069
2.00000E+06 0.00858283
2.09913E+06 0.00826191
2.15139E+06 0.00810341
2.20163E+06 0.00795739
2.20164E+06 0.00795737
2.20190E+06 0.00795662
2.27399E+06 0.00775724
2.27399E+06 0.00775724
2.27420E+06 0.00775668
2.27642E+06 0.00775072
2.31178E+06 0.00765718
2.31210E+06 0.00765635
2.33065E+06 0.00760830
2.35095E+06 0.00755650
2.38710E+06 0.00746621
2.40605E+06 0.00741985
2.40795E+06 0.00741524
2.50000E+06 0.00719931
2.68860E+06 0.00680123
2.69225E+06 0.00679401
2.73757E+06 0.00670589
2.73757E+06 0.00670588
2.74018E+06 0.00670089
2.74019E+06 0.00670088
2.75000E+06 0.00668217
2.76918E+06 0.00664594
2.77395E+06 0.00663700
2.77395E+06 0.00663700
2.82670E+06 0.00653994
2.82671E+06 0.00653992
2.82671E+06 0.00653992
2.82671E+06 0.00653992
2.82691E+06 0.00653956
2.82691E+06 0.00653955
2.84612E+06 0.00650501
2.91335E+06 0.00638731
3.00000E+06 0.00624256
3.36594E+06 0.00415187
3.50000E+06 0.00361527
3.73189E+06 0.00288017
3.75000E+06 0.00283118
4.00000E+06 0.00225242
4.17055E+06 0.00194846
4.50000E+06 0.00149641
4.75000E+06 0.00124029
5.00000E+06 0.00103796
5.50000E+06 0.000728688
6.00000E+06 0.000527570
6.50756E+06 0.000376413
7.00000E+06 0.000277946
7.01513E+06 0.000275463
7.45379E+06 0.000214069
7.50000E+06 0.000208638
7.52773E+06 0.000205462
7.52773E+06 0.000205461
7.53276E+06 0.000204892
8.00000E+06 0.000159540
8.31269E+06 0.000112070
8.62537E+06 7.97584E-05
8.93806E+06 5.74543E-05
9.25074E+06 4.18570E-05
9.62537E+06 2.90374E-05
9.69251E+06 2.72365E-05
1.00000E+07 2.04274E-05
1.05000E+07 1.14774E-05
1.10000E+07 6.62410E-06
1.15000E+07 3.91761E-06
1.20000E+07 2.36933E-06
1.23875E+07 1.53702E-06
1.27751E+07 1.01048E-06
1.31626E+07 6.72687E-07
1.35501E+07 4.53140E-07
1.39919E+07 2.92756E-07
1.40000E+07 2.90458E-07
1.45000E+07 1.72740E-07
1.50000E+07 1.04558E-07
1.55000E+07 6.43381E-08
1.60000E+07 4.02047E-08
1.70000E+07 2.60888E-08
1.80000E+07 1.73528E-08
2.00000E+07 2.02055E-08
2.00000E+07 0.00000
2.05585E+07 0.00000
2.08046E+07 0.00000
2.10000E+07 0.00000
2.10125E+07 0.00000
2.13471E+07 0.00000
2.20000E+07 0.00000
2.30000E+07 0.00000
2.40000E+07 0.00000
2.50000E+07 0.00000
2.60000E+07 0.00000
2.60877E+07 0.00000
2.66648E+07 0.00000
2.68217E+07 0.00000
2.68877E+07 0.00000
2.70000E+07 0.00000
2.76084E+07 0.00000
2.80000E+07 0.00000
2.90000E+07 0.00000
3.00000E+07 0.00000
3.10000E+07 0.00000
3.20000E+07 0.00000
3.30000E+07 0.00000
3.36875E+07 0.00000
3.39330E+07 0.00000
3.40000E+07 0.00000
3.44436E+07 0.00000
3.48483E+07 0.00000
3.50000E+07 0.00000
3.56765E+07 0.00000
3.60000E+07 0.00000
3.70000E+07 0.00000
3.80000E+07 0.00000
3.90000E+07 0.00000
3.94743E+07 0.00000
4.00000E+07 0.00000
4.00293E+07 0.00000
4.09839E+07 0.00000
4.09881E+07 0.00000
4.10000E+07 0.00000
4.20000E+07 0.00000
4.23738E+07 0.00000
4.30000E+07 0.00000
4.40000E+07 0.00000
4.50000E+07 0.00000
4.60000E+07 0.00000
4.70000E+07 0.00000
4.78401E+07 0.00000
4.80000E+07 0.00000
4.90000E+07 0.00000
4.90984E+07 0.00000
4.93967E+07 0.00000
5.00000E+07 0.00000
5.09002E+07 0.00000
5.10000E+07 0.00000
5.20000E+07 0.00000
5.30000E+07 0.00000
5.40000E+07 0.00000
5.40702E+07 0.00000
5.50000E+07 0.00000
5.56829E+07 0.00000
5.57747E+07 0.00000
5.60000E+07 0.00000
5.70000E+07 0.00000
5.77190E+07 0.00000
5.80000E+07 0.00000
5.90000E+07 0.00000
6.00000E+07 0.00000
6.10000E+07 0.00000
6.20000E+07 0.00000
6.30000E+07 0.00000
6.40000E+07 0.00000
6.41865E+07 0.00000
6.50000E+07 0.00000
6.60000E+07 0.00000
6.66162E+07 0.00000
6.70000E+07 0.00000
6.80000E+07 0.00000
6.90000E+07 0.00000
7.00000E+07 0.00000
7.09330E+07 0.00000
7.10000E+07 0.00000
7.20000E+07 0.00000
7.30000E+07 0.00000
7.35367E+07 0.00000
7.40000E+07 0.00000
7.50000E+07 0.00000
7.60000E+07 0.00000
7.70000E+07 0.00000
7.80000E+07 0.00000
7.90000E+07 0.00000
8.00000E+07 0.00000
8.10000E+07 0.00000
8.20000E+07 0.00000
8.30000E+07 0.00000
8.40000E+07 0.00000
8.50000E+07 0.00000
8.60000E+07 0.00000
8.70000E+07 0.00000
8.80000E+07 0.00000
8.90000E+07 0.00000
9.00000E+07 0.00000
9.10000E+07 0.00000
9.20000E+07 0.00000
9.30000E+07 0.00000
9.40000E+07 0.00000
9.50000E+07 0.00000
9.60000E+07 0.00000
9.70000E+07 0.00000
9.80000E+07 0.00000
9.90000E+07 0.00000
1.00000E+08 0.00000
1.02000E+08 0.00000
1.04000E+08 0.00000
1.06000E+08 0.00000
1.08000E+08 0.00000
1.10000E+08 0.00000
1.12000E+08 0.00000
1.14000E+08 0.00000
1.16000E+08 0.00000
1.18000E+08 0.00000
1.20000E+08 0.00000
1.22000E+08 0.00000
1.24000E+08 0.00000
1.26000E+08 0.00000
1.28000E+08 0.00000
1.30000E+08 0.00000
1.32000E+08 0.00000
1.34000E+08 0.00000
1.36000E+08 0.00000
1.38000E+08 0.00000
1.40000E+08 0.00000
1.42000E+08 0.00000
1.44000E+08 0.00000
1.46000E+08 0.00000
1.48000E+08 0.00000
1.50000E+08 0.00000