C-12(n,g) CENDL-3.1
Energy(eV) XS(b)
1.00000E-05 0.171020
1.19336E-05 0.156553
1.38672E-05 0.145229
1.38672E-05 0.145229
1.77344E-05 0.128422
2.00000E-05 0.120929
2.16016E-05 0.116360
2.54688E-05 0.107163
3.32032E-05 0.0938549
4.09375E-05 0.0845252
5.00000E-05 0.0764825
5.64063E-05 0.0720084
7.18750E-05 0.0637908
8.73440E-05 0.0578669
0.000100000 0.0540813
0.000102813 0.0533363
0.000133750 0.0467628
0.000164688 0.0421421
0.000195625 0.0386665
0.000200000 0.0382412
0.000257500 0.0337022
0.000319375 0.0302619
0.000381250 0.0276976
0.000500000 0.0241859
0.000505000 0.0240659
0.000628750 0.0215679
0.000752500 0.0197149
0.00100000 0.0171020
0.00137969 0.0145426
0.00175938 0.0128667
0.00200000 0.0120622
0.00213907 0.0116607
0.00251875 0.0107395
0.00327813 0.00940464
0.00403750 0.00846773
0.00500000 0.00760322
0.00555625 0.00720981
0.00707500 0.00638361
0.00859375 0.00578800
0.0100000 0.00536264
0.0101125 0.00533251
0.0131500 0.00467175
0.0161875 0.00420747
0.0192250 0.00385837
0.0200000 0.00378233
0.0253000 0.00336000
0.0346375 0.00287941
0.0439750 0.00256075
0.0500000 0.00240417
0.0533125 0.00232958
0.0626500 0.00215196
0.0813250 0.00189304
0.100000 0.00171020
0.119336 0.00156553
0.138672 0.00145229
0.177344 0.00128422
0.200000 0.00120929
0.216016 0.00116360
0.254688 0.00107163
0.332032 0.000938549
0.409375 0.000845252
0.500000 0.000764825
0.564063 0.000720084
0.718750 0.000637908
0.873440 0.000578669
1.00000 0.000540813
1.02813 0.000533363
1.33750 0.000467628
1.64688 0.000421421
1.95625 0.000386665
2.00000 0.000382412
2.57500 0.000337022
3.19375 0.000302619
3.81250 0.000276976
5.00000 0.000241859
5.05000 0.000240659
6.28750 0.000215679
7.52500 0.000197149
10.0000 0.000171020
13.8672 0.000145229
17.7344 0.000128422
20.0000 0.000120929
21.6016 0.000116360
25.4688 0.000107163
33.2032 9.38549E-05
40.9375 8.45252E-05
50.0000 7.64825E-05
56.4063 7.20084E-05
71.8750 6.37908E-05
87.3440 5.78669E-05
100.000 5.40813E-05
102.813 5.33363E-05
133.750 4.67628E-05
164.688 4.21421E-05
195.625 3.86665E-05
200.000 3.82412E-05
257.500 3.37022E-05
319.375 3.02619E-05
381.250 2.76976E-05
500.000 2.41859E-05
505.000 2.40659E-05
628.750 2.15679E-05
752.500 1.97149E-05
1000.00 1.71020E-05
1500.00 1.62074E-05
2000.00 1.53129E-05
2750.00 1.39711E-05
3500.00 1.26292E-05
5000.00 9.94556E-06
7500.00 5.47278E-06
10000.0 1.00000E-06
15000.0 9.94445E-07
20000.0 9.88889E-07
21000.0 9.87778E-07
21000.0 9.87778E-07
25000.0 9.83334E-07
30000.0 9.77778E-07
35000.0 9.72223E-07
40000.0 9.66667E-07
40000.0 9.66667E-07
45000.0 9.61112E-07
50000.0 9.55556E-07
60000.0 9.44445E-07
60000.0 9.44445E-07
75000.0 9.27779E-07
97000.0 9.03334E-07
97000.0 9.03334E-07
100000 9.00001E-07
125000 9.06251E-07
130000 9.07501E-07
135000 9.08751E-07
140000 9.10001E-07
142500 9.10626E-07
145000 9.11251E-07
147500 9.11876E-07
148750 9.12188E-07
150000 9.12501E-07
151000 9.12751E-07
152000 9.13001E-07
152900 9.13226E-07
154000 9.13501E-07
155000 9.13751E-07
156000 9.14001E-07
158000 9.14501E-07
160000 9.15001E-07
161250 9.15313E-07
162500 9.15626E-07
165000 9.16251E-07
170000 9.17501E-07
175000 9.18751E-07
180000 9.20001E-07
200000 9.25001E-07
200000 9.25001E-07
225000 9.31251E-07
250000 9.37501E-07
275000 9.43751E-07
300000 9.50001E-07
325000 9.56250E-07
350000 9.62500E-07
375000 9.68750E-07
400000 9.75000E-07
425000 9.81250E-07
450000 9.87500E-07
475000 9.93750E-07
500000 1.00000E-06
525000 1.01406E-06
550000 1.02812E-06
575000 1.04218E-06
600000 1.05624E-06
625000 1.07030E-06
650000 1.08436E-06
675000 1.09842E-06
700000 1.11248E-06
725000 1.12654E-06
750000 1.14060E-06
775000 1.15466E-06
800000 1.16872E-06
825000 1.18278E-06
850000 1.19684E-06
875000 1.21090E-06
900000 1.22496E-06
925000 1.23901E-06
950000 1.25307E-06
975000 1.26713E-06
1.00000E+06 1.28119E-06
1.02500E+06 1.29525E-06
1.05000E+06 1.30931E-06
1.05300E+06 1.31100E-06
1.07500E+06 1.40894E-06
1.10000E+06 1.52024E-06
1.12500E+06 1.63154E-06
1.15000E+06 1.74284E-06
1.17500E+06 1.85414E-06
1.20000E+06 1.96544E-06
1.22500E+06 2.07674E-06
1.25000E+06 2.18804E-06
1.27500E+06 2.29934E-06
1.30000E+06 2.41064E-06
1.32500E+06 2.52194E-06
1.35000E+06 2.63324E-06
1.37500E+06 2.74454E-06
1.40000E+06 2.85584E-06
1.42500E+06 2.96714E-06
1.45000E+06 3.07844E-06
1.47500E+06 3.18974E-06
1.50000E+06 3.30104E-06
1.52500E+06 3.41234E-06
1.55000E+06 3.52364E-06
1.55300E+06 3.53700E-06
1.57500E+06 3.63349E-06
1.60000E+06 3.74314E-06
1.62500E+06 3.85279E-06
1.65000E+06 3.96244E-06
1.67500E+06 4.07209E-06
1.68000E+06 4.09402E-06
1.70000E+06 4.18174E-06
1.71000E+06 4.22560E-06
1.71500E+06 4.24753E-06
1.72000E+06 4.26946E-06
1.72500E+06 4.29139E-06
1.73000E+06 4.31332E-06
1.73200E+06 4.32209E-06
1.73400E+06 4.33087E-06
1.73600E+06 4.33964E-06
1.73800E+06 4.34841E-06
1.74000E+06 4.35718E-06
1.74500E+06 4.37911E-06
1.75000E+06 4.40104E-06
1.75500E+06 4.42297E-06
1.76000E+06 4.44490E-06
1.77000E+06 4.48876E-06
1.77500E+06 4.51069E-06
1.78000E+06 4.53262E-06
1.79000E+06 4.57648E-06
1.80000E+06 4.62034E-06
1.82000E+06 4.70806E-06
1.82500E+06 4.72999E-06
1.85000E+06 4.83964E-06
1.87500E+06 4.94929E-06
1.90000E+06 5.05894E-06
1.92500E+06 5.16859E-06
1.95000E+06 5.27824E-06
1.97500E+06 5.38789E-06
1.98300E+06 5.42298E-06
1.99100E+06 5.45807E-06
2.00000E+06 5.49754E-06
2.02500E+06 5.60719E-06
2.05000E+06 5.71684E-06
2.05200E+06 5.72561E-06
2.05300E+06 5.73000E-06
2.05400E+06 5.73984E-06
2.05600E+06 5.75951E-06
2.05800E+06 5.77919E-06
2.06000E+06 5.79887E-06
2.06100E+06 5.80870E-06
2.06200E+06 5.81854E-06
2.06300E+06 5.82838E-06
2.06400E+06 5.83822E-06
2.06500E+06 5.84806E-06
2.06600E+06 5.85789E-06
2.06700E+06 5.86773E-06
2.06800E+06 5.87757E-06
2.06900E+06 5.88741E-06
2.07000E+06 5.89725E-06
2.07100E+06 5.90708E-06
2.07200E+06 5.91692E-06
2.07300E+06 5.92676E-06
2.07400E+06 5.93660E-06
2.07500E+06 5.94644E-06
2.07600E+06 5.95627E-06
2.07700E+06 5.96611E-06
2.07800E+06 5.97595E-06
2.07900E+06 5.98579E-06
2.08000E+06 5.99563E-06
2.08100E+06 6.00546E-06
2.08200E+06 6.01530E-06
2.08300E+06 6.02514E-06
2.08400E+06 6.03498E-06
2.08500E+06 6.04482E-06
2.08600E+06 6.05465E-06
2.08700E+06 6.06449E-06
2.08800E+06 6.07433E-06
2.08900E+06 6.08417E-06
2.09000E+06 6.09401E-06
2.09100E+06 6.10384E-06
2.09200E+06 6.11368E-06
2.09300E+06 6.12352E-06
2.09400E+06 6.13336E-06
2.09500E+06 6.14320E-06
2.09600E+06 6.15303E-06
2.09700E+06 6.16287E-06
2.09800E+06 6.17271E-06
2.09900E+06 6.18255E-06
2.10000E+06 6.19239E-06
2.10200E+06 6.21206E-06
2.10400E+06 6.23174E-06
2.10600E+06 6.25141E-06
2.10800E+06 6.27109E-06
2.11000E+06 6.29077E-06
2.11200E+06 6.31044E-06
2.11400E+06 6.33012E-06
2.11600E+06 6.34979E-06
2.11800E+06 6.36947E-06
2.12000E+06 6.38915E-06
2.14000E+06 6.58591E-06
2.16000E+06 6.78267E-06
2.18000E+06 6.97943E-06
2.20000E+06 7.17619E-06
2.22000E+06 7.37295E-06
2.24000E+06 7.56971E-06
2.26000E+06 7.76647E-06
2.28000E+06 7.96323E-06
2.30000E+06 8.15999E-06
2.32000E+06 8.35675E-06
2.34000E+06 8.55351E-06
2.36000E+06 8.75027E-06
2.38000E+06 8.94703E-06
2.40000E+06 9.14379E-06
2.42000E+06 9.34055E-06
2.44000E+06 9.53731E-06
2.46000E+06 9.73407E-06
2.48000E+06 9.93083E-06
2.50000E+06 1.01276E-05
2.52000E+06 1.03244E-05
2.54000E+06 1.05211E-05
2.55300E+06 1.06490E-05
2.56000E+06 1.07028E-05
2.58000E+06 1.08564E-05
2.60000E+06 1.10100E-05
2.62000E+06 1.11636E-05
2.64000E+06 1.13172E-05
2.66000E+06 1.14708E-05
2.68000E+06 1.16244E-05
2.70000E+06 1.17780E-05
2.72000E+06 1.19316E-05
2.74000E+06 1.20852E-05
2.76000E+06 1.22388E-05
2.78000E+06 1.23924E-05
2.78500E+06 1.24308E-05
2.79000E+06 1.24692E-05
2.79500E+06 1.25076E-05
2.80000E+06 1.25460E-05
2.80200E+06 1.25613E-05
2.80400E+06 1.25767E-05
2.80600E+06 1.25920E-05
2.80800E+06 1.26074E-05
2.81000E+06 1.26228E-05
2.81100E+06 1.26304E-05
2.81200E+06 1.26381E-05
2.81300E+06 1.26458E-05
2.81400E+06 1.26535E-05
2.81500E+06 1.26612E-05
2.81600E+06 1.26688E-05
2.81700E+06 1.26765E-05
2.81800E+06 1.26842E-05
2.81900E+06 1.26919E-05
2.82000E+06 1.26996E-05
2.82200E+06 1.27149E-05
2.82400E+06 1.27303E-05
2.82600E+06 1.27456E-05
2.82800E+06 1.27610E-05
2.83000E+06 1.27764E-05
2.83500E+06 1.28148E-05
2.84000E+06 1.28532E-05
2.84500E+06 1.28916E-05
2.85000E+06 1.29300E-05
2.85500E+06 1.29684E-05
2.86000E+06 1.30068E-05
2.86500E+06 1.30452E-05
2.87000E+06 1.30836E-05
2.87500E+06 1.31220E-05
2.88000E+06 1.31604E-05
2.88500E+06 1.31988E-05
2.89000E+06 1.32372E-05
2.89500E+06 1.32756E-05
2.90000E+06 1.33140E-05
2.90500E+06 1.33524E-05
2.91000E+06 1.33908E-05
2.91500E+06 1.34292E-05
2.92000E+06 1.34676E-05
2.92400E+06 1.34983E-05
2.92800E+06 1.35290E-05
2.93200E+06 1.35597E-05
2.93600E+06 1.35904E-05
2.94000E+06 1.36212E-05
2.94400E+06 1.36519E-05
2.94800E+06 1.36826E-05
2.95200E+06 1.37133E-05
2.95600E+06 1.37440E-05
2.96000E+06 1.37748E-05
2.96400E+06 1.38055E-05
2.96800E+06 1.38362E-05
2.97200E+06 1.38669E-05
2.97600E+06 1.38976E-05
2.98000E+06 1.39284E-05
2.98400E+06 1.39591E-05
2.98800E+06 1.39898E-05
2.99200E+06 1.40205E-05
2.99600E+06 1.40512E-05
3.00000E+06 1.40820E-05
3.01000E+06 1.41588E-05
3.02000E+06 1.42356E-05
3.03000E+06 1.43124E-05
3.04000E+06 1.43892E-05
3.05000E+06 1.44660E-05
3.05300E+06 1.44890E-05
3.06000E+06 1.45325E-05
3.08000E+06 1.46567E-05
3.10000E+06 1.47809E-05
3.12000E+06 1.49051E-05
3.14000E+06 1.50293E-05
3.16000E+06 1.51535E-05
3.18000E+06 1.52777E-05
3.20000E+06 1.54019E-05
3.22000E+06 1.55261E-05
3.24000E+06 1.56503E-05
3.26000E+06 1.57745E-05
3.28000E+06 1.58987E-05
3.30000E+06 1.60229E-05
3.32000E+06 1.61471E-05
3.34000E+06 1.62713E-05
3.36000E+06 1.63955E-05
3.38000E+06 1.65197E-05
3.40000E+06 1.66439E-05
3.42000E+06 1.67681E-05
3.44000E+06 1.68923E-05
3.46000E+06 1.70165E-05
3.48000E+06 1.71407E-05
3.50000E+06 1.72649E-05
3.52000E+06 1.73891E-05
3.54000E+06 1.75133E-05
3.55300E+06 1.75940E-05
3.56000E+06 1.76520E-05
3.58000E+06 1.78179E-05
3.60000E+06 1.79837E-05
3.62000E+06 1.81496E-05
3.64000E+06 1.83154E-05
3.66000E+06 1.84812E-05
3.68000E+06 1.86471E-05
3.70000E+06 1.88129E-05
3.72000E+06 1.89788E-05
3.74000E+06 1.91446E-05
3.76000E+06 1.93104E-05
3.78000E+06 1.94763E-05
3.80000E+06 1.96421E-05
3.82000E+06 1.98080E-05
3.84000E+06 1.99738E-05
3.86000E+06 2.01396E-05
3.88000E+06 2.03055E-05
3.90000E+06 2.04713E-05
3.92000E+06 2.06372E-05
3.94000E+06 2.08030E-05
3.96000E+06 2.09688E-05
3.98000E+06 2.11347E-05
4.00000E+06 2.13005E-05
4.01000E+06 2.13834E-05
4.02000E+06 2.14664E-05
4.03000E+06 2.15493E-05
4.04000E+06 2.16322E-05
4.05000E+06 2.17151E-05
4.05300E+06 2.17400E-05
4.06000E+06 2.17848E-05
4.07000E+06 2.18488E-05
4.08000E+06 2.19128E-05
4.09000E+06 2.19768E-05
4.10000E+06 2.20408E-05
4.11000E+06 2.21048E-05
4.12000E+06 2.21688E-05
4.13000E+06 2.22328E-05
4.14000E+06 2.22968E-05
4.15000E+06 2.23608E-05
4.16000E+06 2.24248E-05
4.17000E+06 2.24888E-05
4.18000E+06 2.25528E-05
4.19000E+06 2.26168E-05
4.20000E+06 2.26808E-05
4.21000E+06 2.27448E-05
4.22000E+06 2.28088E-05
4.23000E+06 2.28728E-05
4.24000E+06 2.29368E-05
4.25000E+06 2.30008E-05
4.26000E+06 2.30648E-05
4.27000E+06 2.31288E-05
4.28000E+06 2.31928E-05
4.29000E+06 2.32568E-05
4.30000E+06 2.33208E-05
4.31000E+06 2.33848E-05
4.32000E+06 2.34488E-05
4.33000E+06 2.35128E-05
4.34000E+06 2.35768E-05
4.35000E+06 2.36408E-05
4.36000E+06 2.37048E-05
4.37000E+06 2.37688E-05
4.38000E+06 2.38328E-05
4.39000E+06 2.38968E-05
4.40000E+06 2.39608E-05
4.42000E+06 2.40888E-05
4.44000E+06 2.42168E-05
4.46000E+06 2.43448E-05
4.48000E+06 2.44728E-05
4.50000E+06 2.46008E-05
4.52000E+06 2.47288E-05
4.54000E+06 2.48568E-05
4.55300E+06 2.49400E-05
4.56000E+06 2.50001E-05
4.58000E+06 2.51718E-05
4.60000E+06 2.53435E-05
4.62000E+06 2.55153E-05
4.64000E+06 2.56870E-05
4.66000E+06 2.58587E-05
4.68000E+06 2.60304E-05
4.70000E+06 2.62021E-05
4.72000E+06 2.63739E-05
4.74000E+06 2.65456E-05
4.76000E+06 2.67173E-05
4.78000E+06 2.68890E-05
4.80000E+06 2.70607E-05
4.81000E+06 2.71466E-05
4.81200E+06 2.71638E-05
4.81202E+06 2.71639E-05
4.82000E+06 2.72325E-05
4.85000E+06 2.74900E-05
4.89990E+06 2.79185E-05
4.90000E+06 2.79193E-05
4.91940E+06 2.80859E-05
4.92000E+06 2.80911E-05
4.93000E+06 2.81769E-05
4.93450E+06 2.82156E-05
4.93550E+06 2.82242E-05
4.93670E+06 2.82345E-05
4.93850E+06 2.82499E-05
4.93950E+06 2.82585E-05
4.94000E+06 2.82628E-05
4.94320E+06 2.82903E-05
4.94810E+06 2.83323E-05
4.95000E+06 2.83486E-05
4.95460E+06 2.83881E-05
4.95840E+06 2.84208E-05
4.98000E+06 2.86062E-05
4.99000E+06 2.86921E-05
5.00000E+06 2.87779E-05
5.00100E+06 2.87865E-05
5.03000E+06 2.90355E-05
5.05300E+06 2.92330E-05
5.10000E+06 2.98106E-05
5.12000E+06 3.00564E-05
5.15000E+06 3.04251E-05
5.18000E+06 3.07938E-05
5.20000E+06 3.10396E-05
5.23000E+06 3.14083E-05
5.28000E+06 3.20228E-05
5.30000E+06 3.22686E-05
5.33000E+06 3.26373E-05
5.33500E+06 3.26988E-05
5.34000E+06 3.27602E-05
5.36000E+06 3.30060E-05
5.36200E+06 3.30306E-05
5.37000E+06 3.31289E-05
5.37100E+06 3.31412E-05
5.37800E+06 3.32273E-05
5.38000E+06 3.32518E-05
5.39000E+06 3.33747E-05
5.40000E+06 3.34976E-05
5.41000E+06 3.36205E-05
5.42000E+06 3.37434E-05
5.43000E+06 3.38663E-05
5.44000E+06 3.39892E-05
5.46000E+06 3.42350E-05
5.50000E+06 3.47266E-05
5.55000E+06 3.53411E-05
5.55300E+06 3.53780E-05
5.60000E+06 3.63929E-05
5.65000E+06 3.74726E-05
5.70000E+06 3.85523E-05
5.80000E+06 4.07117E-05
5.90000E+06 4.28711E-05
6.00000E+06 4.50305E-05
6.05000E+06 4.61102E-05
6.05300E+06 4.61750E-05
6.12500E+06 4.81992E-05
6.16000E+06 4.91832E-05
6.17400E+06 4.95768E-05
6.18000E+06 4.97455E-05
6.18075E+06 4.97666E-05
6.18120E+06 4.97792E-05
6.19000E+06 5.00266E-05
6.20000E+06 5.03078E-05
6.21000E+06 5.05889E-05
6.22000E+06 5.08700E-05
6.23000E+06 5.11512E-05
6.24000E+06 5.14323E-05
6.25000E+06 5.17135E-05
6.28500E+06 5.26975E-05
6.29500E+06 5.29786E-05
6.30300E+06 5.32035E-05
6.31000E+06 5.34003E-05
6.32000E+06 5.36814E-05
6.33000E+06 5.39626E-05
6.34000E+06 5.42437E-05
6.35000E+06 5.45249E-05
6.36000E+06 5.48060E-05
6.37000E+06 5.50871E-05
6.39000E+06 5.56494E-05
6.40000E+06 5.59306E-05
6.41000E+06 5.62117E-05
6.42000E+06 5.64928E-05
6.43000E+06 5.67740E-05
6.44000E+06 5.70551E-05
6.45000E+06 5.73363E-05
6.47000E+06 5.78985E-05
6.49000E+06 5.84608E-05
6.51000E+06 5.90231E-05
6.54000E+06 5.98665E-05
6.55300E+06 6.02320E-05
6.56000E+06 6.04832E-05
6.57000E+06 6.08419E-05
6.58000E+06 6.12007E-05
6.59000E+06 6.15595E-05
6.60000E+06 6.19183E-05
6.62000E+06 6.26358E-05
6.64000E+06 6.33534E-05
6.65800E+06 6.39992E-05
6.66500E+06 6.42503E-05
6.67000E+06 6.44297E-05
6.68000E+06 6.47885E-05
6.70000E+06 6.55061E-05
6.75000E+06 6.73000E-05
6.81000E+06 6.94527E-05
6.92000E+06 7.33992E-05
7.00000E+06 7.62695E-05
7.05300E+06 7.81710E-05
7.10000E+06 8.03329E-05
7.14000E+06 8.21728E-05
7.18000E+06 8.40128E-05
7.20000E+06 8.49327E-05
7.22000E+06 8.58527E-05
7.22500E+06 8.60827E-05
7.25000E+06 8.72326E-05
7.27000E+06 8.81526E-05
7.28000E+06 8.86126E-05
7.34000E+06 9.13724E-05
7.35000E+06 9.18324E-05
7.36000E+06 9.22924E-05
7.37000E+06 9.27524E-05
7.40000E+06 9.41323E-05
7.42000E+06 9.50523E-05
7.47000E+06 9.73522E-05
7.52900E+06 0.000100066
7.54200E+06 0.000100664
7.55300E+06 0.000101170
7.59400E+06 0.000102050
7.62000E+06 0.000102608
7.65000E+06 0.000103252
7.66700E+06 0.000103616
7.68000E+06 0.000103895
7.69800E+06 0.000104282
7.70000E+06 0.000104325
7.72500E+06 0.000104861
7.74500E+06 0.000105290
7.75000E+06 0.000105398
7.77000E+06 0.000105827
7.78900E+06 0.000106235
7.81000E+06 0.000106685
7.81900E+06 0.000106878
7.86000E+06 0.000107758
7.88640E+06 0.000108325
7.88650E+06 0.000108327
7.88650E+06 0.000108327
7.88651E+06 0.000108327
7.88800E+06 0.000108359
7.89700E+06 0.000108552
7.93000E+06 0.000109260
7.93600E+06 0.000109389
8.00000E+06 0.000110763
8.00500E+06 0.000110870
8.01000E+06 0.000110977
8.01400E+06 0.000111063
8.04400E+06 0.000111707
8.05300E+06 0.000111900
8.07900E+06 0.000112126
8.08000E+06 0.000112135
8.10000E+06 0.000112309
8.10100E+06 0.000112317
8.10500E+06 0.000112352
8.10900E+06 0.000112387
8.12000E+06 0.000112482
8.13041E+06 0.000112573
8.13100E+06 0.000112578
8.13800E+06 0.000112639
8.16000E+06 0.000112830
8.16600E+06 0.000112882
8.20000E+06 0.000113178
8.21000E+06 0.000113265
8.21800E+06 0.000113334
8.24000E+06 0.000113525
8.28000E+06 0.000113873
8.29302E+06 0.000113986
8.29580E+06 0.000114010
8.29620E+06 0.000114014
8.29760E+06 0.000114026
8.32000E+06 0.000114221
8.33000E+06 0.000114308
8.39100E+06 0.000114838
8.40000E+06 0.000114916
8.42600E+06 0.000115142
8.44800E+06 0.000115333
8.45000E+06 0.000115351
8.48000E+06 0.000115612
8.49950E+06 0.000115781
8.50000E+06 0.000115785
8.52000E+06 0.000115959
8.55300E+06 0.000116246
8.60000E+06 0.000115812
8.61100E+06 0.000115710
8.66400E+06 0.000115220
8.70000E+06 0.000114887
8.70800E+06 0.000114814
8.75000E+06 0.000114425
8.76800E+06 0.000114259
8.80000E+06 0.000113963
8.83300E+06 0.000113658
8.85000E+06 0.000113501
8.88500E+06 0.000113178
8.92000E+06 0.000112854
8.94000E+06 0.000112669
8.98000E+06 0.000112300
9.00000E+06 0.000112115
9.00500E+06 0.000112069
9.02000E+06 0.000111930
9.03000E+06 0.000111838
9.04500E+06 0.000111699
9.05300E+06 0.000111625
9.06700E+06 0.000111208
9.08000E+06 0.000110821
9.14900E+06 0.000108766
9.16300E+06 0.000108349
9.18000E+06 0.000107842
9.21900E+06 0.000106681
9.25000E+06 0.000105758
9.25400E+06 0.000105638
9.30000E+06 0.000104268
9.36000E+06 0.000102481
9.40000E+06 0.000101290
9.45000E+06 9.98008E-05
9.50000E+06 9.83116E-05
9.52200E+06 9.76563E-05
9.55300E+06 9.67330E-05
9.56000E+06 9.66103E-05
9.59000E+06 9.60843E-05
9.60000E+06 9.59090E-05
9.63000E+06 9.53830E-05
9.64000E+06 9.52077E-05
9.67800E+06 9.45415E-05
9.68000E+06 9.45064E-05
9.69200E+06 9.42961E-05
9.70000E+06 9.41558E-05
9.72600E+06 9.37000E-05
9.74000E+06 9.34545E-05
9.75000E+06 9.32792E-05
9.80000E+06 9.24026E-05
9.82100E+06 9.20344E-05
9.83000E+06 9.18766E-05
9.86800E+06 9.12104E-05
9.90000E+06 9.06494E-05
9.91700E+06 9.03514E-05
9.92100E+06 9.02812E-05
1.00000E+07 8.88962E-05
1.00500E+07 8.80196E-05
1.00530E+07 8.79670E-05
1.01700E+07 8.55945E-05
1.02500E+07 8.39722E-05
1.03000E+07 8.29583E-05
1.03720E+07 8.14983E-05
1.04000E+07 8.09305E-05
1.04480E+07 7.99572E-05
1.04503E+07 7.99106E-05
1.04780E+07 7.93489E-05
1.05000E+07 7.89027E-05
1.05060E+07 7.87811E-05
1.05360E+07 7.81727E-05
1.05500E+07 7.78888E-05
1.05530E+07 7.78280E-05
1.06200E+07 7.66329E-05
1.06900E+07 7.53842E-05
1.07000E+07 7.52058E-05
1.07500E+07 7.43139E-05
1.08000E+07 7.34220E-05
1.08300E+07 7.28869E-05
1.09000E+07 7.16382E-05
1.09400E+07 7.09247E-05
1.10000E+07 6.98544E-05
1.10040E+07 6.97831E-05
1.10530E+07 6.89090E-05
1.10960E+07 6.84601E-05
1.11000E+07 6.84183E-05
1.11660E+07 6.77293E-05
1.11700E+07 6.76875E-05
1.12500E+07 6.68523E-05
1.13000E+07 6.63303E-05
1.14000E+07 6.52863E-05
1.15000E+07 6.42423E-05
1.15530E+07 6.36890E-05
1.17080E+07 6.28501E-05
1.17500E+07 6.26228E-05
1.17510E+07 6.26174E-05
1.18000E+07 6.23522E-05
1.18280E+07 6.22007E-05
1.19000E+07 6.18110E-05
1.19090E+07 6.17623E-05
1.19170E+07 6.17190E-05
1.20000E+07 6.12698E-05
1.20500E+07 6.09992E-05
1.20530E+07 6.09830E-05
1.20880E+07 6.13105E-05
1.21000E+07 6.14227E-05
1.21960E+07 6.23209E-05
1.22240E+07 6.25829E-05
1.22500E+07 6.28261E-05
1.23000E+07 6.32939E-05
1.24000E+07 6.42295E-05
1.25000E+07 6.51651E-05
1.25530E+07 6.56610E-05
1.25990E+07 6.65395E-05
1.27000E+07 6.84684E-05
1.27380E+07 6.91941E-05
1.27920E+07 7.02254E-05
1.29000E+07 7.22880E-05
1.29900E+07 7.40068E-05
1.30000E+07 7.41978E-05
1.30530E+07 7.52100E-05
1.31000E+07 7.70142E-05
1.31200E+07 7.77820E-05
1.32500E+07 8.27724E-05
1.32800E+07 8.39241E-05
1.33000E+07 8.46918E-05
1.35000E+07 9.23694E-05
1.35400E+07 9.39050E-05
1.35530E+07 9.44040E-05
1.35870E+07 9.60223E-05
1.36450E+07 9.87828E-05
1.36451E+07 9.87890E-05
1.36460E+07 9.88304E-05
1.37000E+07 0.000101401
1.37670E+07 0.000104590
1.38220E+07 0.000107207
1.38300E+07 0.000107588
1.39650E+07 0.000114014
1.40000E+07 0.000115679
1.40530E+07 0.000118202
1.41820E+07 0.000123633
1.42500E+07 0.000126497
1.43640E+07 0.000131296
1.44190E+07 0.000133612
1.44720E+07 0.000135844
1.45000E+07 0.000137023
1.45530E+07 0.000139254
1.45660E+07 0.000139887
1.46530E+07 0.000144121
1.46940E+07 0.000146116
1.47500E+07 0.000148842
1.47670E+07 0.000149669
1.48070E+07 0.000151616
1.48120E+07 0.000151859
1.48370E+07 0.000153076
1.48630E+07 0.000154341
1.48866E+07 0.000155490
1.48870E+07 0.000155509
1.48880E+07 0.000155558
1.48920E+07 0.000155753
1.49060E+07 0.000156434
1.49090E+07 0.000156580
1.49270E+07 0.000157456
1.49540E+07 0.000158770
1.49620E+07 0.000159159
1.49960E+07 0.000160814
1.50000E+07 0.000161009
1.50060E+07 0.000161301
1.50450E+07 0.000163199
1.50473E+07 0.000163311
1.50530E+07 0.000163588
1.50721E+07 0.000164274
1.50930E+07 0.000165025
1.50969E+07 0.000165165
1.51217E+07 0.000166056
1.51465E+07 0.000166948
1.51962E+07 0.000168733
1.52458E+07 0.000170515
1.52480E+07 0.000170594
1.52630E+07 0.000171133
1.53450E+07 0.000174080
1.54000E+07 0.000176056
1.54442E+07 0.000177644
1.54480E+07 0.000177780
1.54770E+07 0.000178822
1.55000E+07 0.000179649
1.55530E+07 0.000181553
1.56427E+07 0.000184292
1.57310E+07 0.000186988
1.57419E+07 0.000187321
1.58412E+07 0.000190354
1.59660E+07 0.000194164
1.59700E+07 0.000194287
1.59900E+07 0.000194897
1.60000E+07 0.000195203
1.60269E+07 0.000196024
1.60530E+07 0.000196821
1.60680E+07 0.000197131
1.62127E+07 0.000200119
1.62560E+07 0.000201013
1.63470E+07 0.000202893
1.63985E+07 0.000203956
1.64430E+07 0.000204875
1.65000E+07 0.000206052
1.65320E+07 0.000206713
1.65530E+07 0.000207147
1.65843E+07 0.000207265
1.66950E+07 0.000207683
1.67448E+07 0.000207871
1.68200E+07 0.000208154
1.68240E+07 0.000208169
1.69052E+07 0.000208476
1.69740E+07 0.000208735
1.70000E+07 0.000208833
1.70530E+07 0.000209033
1.70657E+07 0.000208904
1.70740E+07 0.000208819
1.71380E+07 0.000208168
1.71459E+07 0.000208088
1.72261E+07 0.000207272
1.72980E+07 0.000206540
1.73000E+07 0.000206520
1.73010E+07 0.000206510
1.73781E+07 0.000205725
1.74310E+07 0.000205187
1.74670E+07 0.000204821
1.75000E+07 0.000204485
1.75301E+07 0.000204179
1.75530E+07 0.000203946
1.76160E+07 0.000203015
1.76870E+07 0.000201966
1.78342E+07 0.000199790
1.79000E+07 0.000198817
1.79010E+07 0.000198803
1.80000E+07 0.000197339
1.80530E+07 0.000196556
1.80870E+07 0.000196448
1.81382E+07 0.000196285
1.81580E+07 0.000196222
1.82000E+07 0.000196088
1.82730E+07 0.000195855
1.84422E+07 0.000195316
1.84600E+07 0.000195259
1.85000E+07 0.000195132
1.85160E+07 0.000195081
1.85530E+07 0.000194963
1.86320E+07 0.000195245
1.86871E+07 0.000195442
1.87000E+07 0.000195488
1.88330E+07 0.000195964
1.89320E+07 0.000196318
1.90000E+07 0.000196561
1.90300E+07 0.000196668
1.90340E+07 0.000196682
1.90530E+07 0.000196750
1.91769E+07 0.000199122
1.91850E+07 0.000199277
1.93460E+07 0.000202359
1.94219E+07 0.000203812
1.95000E+07 0.000205307
1.95110E+07 0.000205518
1.95530E+07 0.000206322
1.96000E+07 0.000206842
1.96610E+07 0.000207517
1.97132E+07 0.000208094
1.97940E+07 0.000208988
1.98920E+07 0.000210072
2.00000E+07 0.000211267