Ni-64(n,g) ENDF/B-VII.1
Energy(eV) XS(b)
1.00000E-05 74.4405
1.25000E-05 66.5816
1.50000E-05 60.7804
2.00000E-05 52.6374
2.75000E-05 44.8893
3.50000E-05 39.7901
4.25000E-05 36.1089
5.00000E-05 33.2908
6.25000E-05 29.7762
7.50000E-05 27.1818
0.000100000 23.5401
0.000125000 21.0549
0.000150000 19.2205
0.000200000 16.6454
0.000275000 14.1952
0.000350000 12.5827
0.000425000 11.4187
0.000500000 10.5275
0.000625000 9.41606
0.000750000 8.59565
0.00100000 7.44405
0.00125000 6.65816
0.00150000 6.07804
0.00200000 5.26374
0.00275000 4.48893
0.00350000 3.97901
0.00425000 3.61090
0.00500000 3.32908
0.00625000 2.97762
0.00750000 2.71818
0.0100000 2.35402
0.0125000 2.10550
0.0150000 1.92205
0.0200000 1.66454
0.0253000 1.47996
0.0314750 1.32687
0.0376500 1.21319
0.0500000 1.05275
0.0625000 0.941612
0.0750000 0.859572
0.100000 0.744413
0.125000 0.665825
0.150000 0.607814
0.200000 0.526385
0.275000 0.448907
0.350000 0.397916
0.500000 0.332926
0.750000 0.271841
1.00000 0.235427
1.50000 0.192236
2.00000 0.166491
2.75000 0.141996
3.50000 0.125876
5.00000 0.105333
7.50000 0.0860277
10.0000 0.0745228
15.0000 0.0608813
20.0000 0.0527539
27.5000 0.0450261
35.0000 0.0399445
50.0000 0.0334756
75.0000 0.0274087
100.000 0.0238028
150.000 0.0195436
200.000 0.0170203
275.000 0.0146381
350.000 0.0130859
500.000 0.0111376
750.000 0.00936153
999.999 0.00835091
1000.00 0.00835091
1000.01 0.00835088
1000.02 0.00835086
1000.03 0.00835081
1000.06 0.00835071
1000.12 0.00835052
1000.25 0.00835013
1000.49 0.00834935
1000.98 0.00834781
1001.96 0.00834471
1003.91 0.00833854
1007.81 0.00832625
1015.63 0.00830193
1031.25 0.00825424
1062.50 0.00816253
1125.00 0.00799255
1250.00 0.00769844
1500.00 0.00724795
2000.00 0.00669022
2750.00 0.00631338
3500.00 0.00623991
4000.00 0.00630677
4000.00 0.00630677
4000.01 0.00630677
4000.02 0.00630677
4000.03 0.00630678
4000.06 0.00630678
4000.12 0.00630680
4000.25 0.00630682
4000.49 0.00630688
4000.98 0.00630698
4001.96 0.00630719
4003.91 0.00630761
4007.81 0.00630846
4015.63 0.00631017
4031.25 0.00631364
4062.50 0.00632081
4125.00 0.00633607
4250.00 0.00637023
4500.00 0.00645295
5000.00 0.00667639
6129.01 0.00749557
7258.03 0.00891685
8387.04 0.0116442
8951.54 0.0154553
9092.67 0.0182115
9233.80 0.0251855
9304.36 0.0343965
9339.64 0.0434258
9374.92 0.0597159
9410.21 0.0939905
9427.85 0.127560
9445.49 0.187589
9454.31 0.237186
9463.13 0.311455
9471.95 0.429938
9480.77 0.635989
9489.59 1.04252
9494.00 1.41268
9498.41 2.02242
9502.82 3.12829
9505.03 4.04964
9507.23 5.43274
9509.44 7.62686
9511.64 11.3485
9513.85 18.1455
9516.05 31.1348
9518.03 49.8951
9520.00 62.4186
9521.98 49.8623
9523.95 31.1140
9525.81 19.6573
9527.67 13.0344
9529.53 9.11857
9531.39 6.68162
9535.11 3.98755
9538.83 2.63298
9542.55 1.86421
9546.27 1.38859
9553.70 0.856803
9561.14 0.582646
9568.58 0.423349
9576.02 0.322746
9583.46 0.255212
9598.33 0.173035
9613.21 0.126876
9642.96 0.0796327
9672.72 0.0572222
9702.47 0.0448980
9761.98 0.0325983
9880.99 0.0240577
10000.0 0.0214691
10356.1 0.0209319
10712.3 0.0231203
11424.5 0.0311443
12136.8 0.0454137
12849.0 0.0702866
13574.5 0.107240
14300.0 0.125083
14549.7 0.118745
14674.5 0.114093
14736.9 0.113747
14768.1 0.122665
14775.9 0.132888
14783.7 0.161867
14787.6 0.201104
14791.5 0.306430
14793.5 0.442097
14794.5 0.569457
14795.4 0.782576
14796.4 1.18923
14796.9 1.54358
14797.4 2.08608
14797.9 3.01701
14798.4 4.74764
14798.6 6.24175
14798.9 8.38341
14799.1 11.6437
14799.3 16.6172
14799.7 26.5729
14800.0 33.2305
14800.3 26.5727
14800.7 16.6173
14800.9 11.6440
14801.1 8.49356
14801.4 6.38930
14801.6 4.94973
14802.1 3.17321
14802.5 2.22083
14803.0 1.63673
14803.5 1.26929
14804.4 0.837714
14805.3 0.607563
14806.2 0.470850
14808.1 0.324175
14811.8 0.208969
14815.5 0.165599
14822.9 0.132917
14830.4 0.120837
14860.1 0.107641
14919.5 0.101379
15038.3 0.0939141
15275.8 0.0805045
15751.0 0.0580411
16282.1 0.0407223
16813.3 0.0296236
17344.4 0.0224600
17875.5 0.0177157
18937.8 0.0122331
20000.0 0.00949264
21171.1 0.00801013
22342.3 0.00742504
22927.8 0.00736382
23513.4 0.00743019
24098.9 0.00761525
24684.5 0.00791651
25270.1 0.00833677
25855.6 0.00888350
26441.2 0.00956843
27026.8 0.0104071
28197.9 0.0126209
29369.0 0.0156673
30608.5 0.0197865
31228.3 0.0221065
31538.1 0.0236529
31693.1 0.0260745
31731.8 0.0281546
31770.5 0.0337568
31789.9 0.0412988
31809.3 0.0618868
31819.0 0.0892471
31823.8 0.115486
31828.6 0.161305
31833.5 0.252285
31835.9 0.335731
31838.3 0.474271
31840.7 0.728569
31842.0 0.943092
31843.2 1.26920
31844.4 1.79561
31845.6 2.71109
31846.8 4.44575
31847.4 5.90247
31848.0 7.93105
31849.0 12.6768
31850.0 15.8407
31851.0 12.6758
31852.0 7.93043
31853.0 4.95719
31853.9 3.27661
31854.9 2.28992
31855.9 1.67871
31857.8 1.00655
31859.7 0.670117
31861.6 0.479001
31863.5 0.361695
31867.4 0.230732
31871.2 0.163188
31875.1 0.124100
31882.8 0.0828735
31890.4 0.0627240
31898.1 0.0514209
31913.5 0.0398774
31944.3 0.0314115
31975.0 0.0284291
32098.0 0.0257535
32344.0 0.0256063
32836.0 0.0263174
33820.0 0.0263382
34932.8 0.0236449
36045.5 0.0194055
38271.0 0.0117000
39737.1 0.00836723
41203.3 0.00613018
42669.4 0.00461856
44135.5 0.00357313
47067.8 0.00228792
50000.0 0.00157270
53199.2 0.00110998
56398.3 0.000822433
59597.5 0.000636426
61197.1 0.000582563
61996.9 0.000621775
62396.8 0.000886921
62596.7 0.00197842
62646.7 0.00309386
62696.7 0.00620210
62721.7 0.0104146
62746.7 0.0218391
62759.2 0.0368064
62765.4 0.0509853
62771.7 0.0753279
62777.9 0.122580
62781.0 0.164897
62784.2 0.232998
62787.3 0.353267
62790.4 0.591143
62792.0 0.805621
62793.5 1.14874
62795.1 1.72578
62796.7 2.71644
62798.3 4.35153
62800.0 5.43287
62801.7 4.34080
62803.4 2.71621
62804.5 1.94273
62805.6 1.42064
62806.8 1.06878
62807.9 0.828276
62810.2 0.532126
62812.4 0.367736
62814.7 0.268300
62817.0 0.203990
62821.5 0.129008
62826.1 0.0887989
62830.6 0.0648301
62839.7 0.0389430
62848.8 0.0260199
62857.8 0.0186610
62876.0 0.0110331
62912.3 0.00532459
62948.7 0.00325337
63021.3 0.00173742
63094.0 0.00119558
63239.3 0.000800907
63384.6 0.000658421
63675.2 0.000550118
63965.8 0.000506254
65128.2 0.000438894
67452.9 0.000373500
72102.5 0.000287826
81401.7 0.000191038
90700.8 0.000144321
95350.4 0.000133590
99999.9 0.000136547
100000 0.000136548
103223 0.000182400
104028 0.000231032
104431 0.000279309
104834 0.000366685
105237 0.000550263
105438 0.000729321
105639 0.00104769
105841 0.00169818
105942 0.00231354
106042 0.00337059
106143 0.00541536
106193 0.00724064
106244 0.0101737
106294 0.0153256
106344 0.0254597
106370 0.0345554
106395 0.0490121
106420 0.0730956
106445 0.113688
106473 0.180957
106500 0.225348
106528 0.179488
106556 0.111543
106578 0.0761992
106599 0.0537091
106621 0.0392998
106642 0.0298013
106685 0.0186109
106729 0.0126473
106772 0.00912889
106815 0.00690149
106901 0.00434998
106987 0.00300319
107074 0.00221009
107246 0.00136175
107418 0.000941862
107591 0.000704336
107936 0.000459515
108281 0.000342682
108626 0.000278225
109315 0.000213866
110695 0.000170064
112075 0.000158937
114834 0.000165741
117593 0.000197372
120352 0.000270089
121732 0.000340269
123112 0.000461467
124491 0.000697427
125181 0.000909558
125871 0.00125481
126561 0.00187089
126906 0.00237623
127250 0.00312361
127595 0.00428587
127768 0.00511854
127854 0.00562404
127940 0.00620344
128027 0.00687097
128113 0.00764109
128199 0.00853341
128285 0.00956989
128371 0.0107769
128458 0.0121785
128544 0.0138025
128630 0.0156706
128714 0.0177287
128798 0.0200059
128965 0.0249429
129300 0.0310303
129468 0.0291630
129635 0.0247792
129970 0.0155160
130343 0.00910438
130717 0.00574027
131090 0.00389575
131463 0.00280813
131837 0.00212315
132210 0.00166776
132956 0.00112396
133703 0.000827803
134449 0.000652040
135943 0.000471678
137436 0.000403611
138929 0.000414212
139675 0.000471185
140422 0.000643996
140795 0.000874779
140982 0.00109496
141169 0.00147647
141355 0.00222677
141449 0.00290765
141542 0.00402619
141635 0.00604752
141682 0.00772778
141728 0.0102359
141775 0.0142045
141822 0.0208746
141868 0.0329564
141915 0.0556396
141958 0.0885588
142000 0.110344
142043 0.0880542
142086 0.0549345
142112 0.0407277
142138 0.0307370
142190 0.0187882
142243 0.0124896
142295 0.00888173
142347 0.00664509
142399 0.00517808
142503 0.00344047
142607 0.00249455
142712 0.00192633
142920 0.00131046
143129 0.00100416
143337 0.000832696
143754 0.000664080
145423 0.000590895
146257 0.000679017
147091 0.000887244
147508 0.00112200
147716 0.00133274
147925 0.00169119
148134 0.00240483
148238 0.00307703
148342 0.00423988
148446 0.00654236
148498 0.00865326
148551 0.0121669
148655 0.0326267
148681 0.0464311
148694 0.0567374
148707 0.0707128
148720 0.0903047
148733 0.117996
148746 0.158062
148759 0.215787
148769 0.276268
148780 0.344689
148800 0.430562
148810 0.405019
148821 0.344577
148841 0.215689
148858 0.145698
148874 0.102017
148890 0.0742059
148907 0.0561010
148940 0.0350014
148973 0.0238895
149006 0.0173992
149038 0.0133043
149104 0.00865160
149170 0.00621470
149236 0.00479066
149367 0.00329224
149499 0.00257435
149630 0.00218929
149893 0.00184355
150419 0.00174908
150946 0.00193869
151472 0.00229610
151735 0.00253787
151998 0.00282767
152261 0.00317257
152524 0.00358031
152787 0.00405950
153050 0.00461658
153294 0.00520488
153538 0.00585687
154025 0.00726827
155000 0.00897814
155488 0.00841734
155975 0.00714455
156950 0.00448693
157722 0.00307572
158495 0.00219366
159267 0.00164690
160040 0.00131382
160812 0.00114550
161584 0.00120471
161971 0.00145409
162164 0.00173129
162357 0.00224413
162550 0.00330303
162646 0.00429675
162743 0.00597195
162840 0.00911291
162888 0.0118144
162936 0.0159885
162984 0.0229144
163033 0.0353856
163057 0.0456265
163081 0.0604375
163105 0.0823936
163117 0.0971759
163129 0.114885
163138 0.130105
163147 0.146991
163165 0.183464
163200 0.229130
163218 0.215576
163236 0.183354
163271 0.114771
163299 0.0783274
163327 0.0552442
163354 0.0404718
163382 0.0307093
163437 0.0192540
163493 0.0131784
163548 0.00960024
163604 0.00733506
163715 0.00473848
163826 0.00336750
163936 0.00255652
164158 0.00168290
164380 0.00124329
164602 0.000988602
165045 0.000714419
165932 0.000486238
166819 0.000386149
168593 0.000294849
170368 0.000262961
172142 0.000277088
173029 0.000311938
173916 0.000386151
174803 0.000550991
175246 0.000711723
175690 0.000991427
176134 0.00153772
176355 0.00202762
176577 0.00281957
176799 0.00421634
177021 0.00699195
177131 0.00950253
177242 0.0135305
177298 0.0164741
177353 0.0203308
177381 0.0226975
177409 0.0254126
177436 0.0285176
177464 0.0320455
177494 0.0362819
177523 0.0409803
177553 0.0460263
177582 0.0511847
177700 0.0638988
177759 0.0601172
177818 0.0510954
177936 0.0319582
178041 0.0206977
178147 0.0139978
178252 0.00993734
178357 0.00736740
178568 0.00447818
178779 0.00300287
178990 0.00215752
179200 0.00163079
179622 0.00103793
180043 0.000729982
180464 0.000549950
181307 0.000358501
182150 0.000264010
182993 0.000210644
184678 0.000157113
186364 0.000137399
188049 0.000146441
188892 0.000175841
189735 0.000268179
190156 0.000395768
190367 0.000519757
190577 0.000738013
190788 0.00117536
190893 0.00158009
190999 0.00225710
191104 0.00351660
191157 0.00459306
191209 0.00624719
191262 0.00897026
191315 0.0138199
191367 0.0233907
191394 0.0316333
191420 0.0436450
191460 0.0695442
191500 0.0866832
191541 0.0691484
191581 0.0430705
191608 0.0310505
191635 0.0228956
191688 0.0134844
191742 0.00873241
191795 0.00608101
191848 0.00446631
191902 0.00341869
192009 0.00219421
192116 0.00153475
192223 0.00114108
192437 0.000714737
192650 0.000501152
192864 0.000379205
193292 0.000252326
193720 0.000190921
194148 0.000156544
195003 0.000121349
196714 9.58981E-05
198425 8.90079E-05
200136 9.12980E-05
201847 0.000108281
202703 0.000133730
203130 0.000159221
203558 0.000205611
203986 0.000304080
204200 0.000401321
204414 0.000576747
204521 0.000723202
204627 0.000944449
204734 0.00130247
204841 0.00193692
204895 0.00245712
204948 0.00322984
205002 0.00444877
205055 0.00652968
205109 0.0105366
205135 0.0140784
205162 0.0197376
205189 0.0295969
205216 0.0486539
205242 0.0916067
205256 0.134395
205262 0.165429
205269 0.204378
205277 0.261981
205285 0.326940
205292 0.384896
205300 0.408616
205308 0.384272
205316 0.326877
205331 0.204317
205349 0.115819
205368 0.0712223
205386 0.0473369
205404 0.0334642
205422 0.0247720
205440 0.0190625
205477 0.0122584
205513 0.00852484
205550 0.00627603
205623 0.00381384
205696 0.00257121
205768 0.00185880
205841 0.00141314
205914 0.00111640
206060 0.000757404
206206 0.000557376
206497 0.000354056
206789 0.000258379
207080 0.000206210
207663 0.000154947
208829 0.000121964
209995 0.000116741
211161 0.000124578
212327 0.000152505
212911 0.000189126
213494 0.000286448
214077 0.000760046
214222 0.00120887
214295 0.00163256
214368 0.00235793
214441 0.00375973
214477 0.00500941
214514 0.00701248
214550 0.0105253
214587 0.0174052
214605 0.0235413
214623 0.0332481
214641 0.0493259
214660 0.0764134
214680 0.122322
214700 0.152711
214720 0.122042
214741 0.0763859
214760 0.0475375
214780 0.0312397
214800 0.0217292
214819 0.0158643
214839 0.0120467
214859 0.00944269
214898 0.00624181
214938 0.00443551
214977 0.00332187
215056 0.00208146
215135 0.00144459
215213 0.00107569
215371 0.000688070
215529 0.000500126
215686 0.000395738
216001 0.000291690
216632 0.000224120
217262 0.000214062
217893 0.000232483
218523 0.000298836
218838 0.000388737
218996 0.000476528
219154 0.000634330
219311 0.000965477
219390 0.00128968
219469 0.00187005
219548 0.00307110
219587 0.00422435
219626 0.00623972
219666 0.0102467
219705 0.0200477
219725 0.0313103
219745 0.0553562
219764 0.120021
219774 0.199168
219779 0.264880
219784 0.358344
219788 0.458618
219792 0.573212
219800 0.716430
219804 0.674282
219808 0.573160
219816 0.358294
219830 0.160462
219844 0.0855491
219857 0.0521753
219871 0.0349116
219885 0.0248826
219898 0.0186553
219926 0.0116097
219953 0.00792747
219981 0.00578231
220036 0.00350352
220090 0.00238208
220145 0.00175068
220255 0.00110411
220365 0.000797238
220475 0.000629153
220694 0.000462946
221133 0.000352749
221572 0.000326556
222450 0.000341761
223328 0.000398605
224205 0.000500646
225083 0.000704926
225522 0.000920690
225742 0.00110827
225961 0.00141924
226181 0.00202026
226290 0.00257169
226400 0.00350329
226510 0.00528399
226620 0.00938147
226675 0.0137872
226729 0.0224055
226757 0.0301181
226784 0.0422764
226798 0.0510344
226812 0.0624036
226825 0.0772059
226839 0.0962942
226854 0.123127
226870 0.153583
226900 0.191751
226915 0.180438
226931 0.153547
226961 0.0962763
226985 0.0658286
227009 0.0465606
227033 0.0342331
227056 0.0260893
227104 0.0165391
227152 0.0114847
227199 0.00851512
227247 0.00664312
227342 0.00451445
227438 0.00341070
227533 0.00277610
227723 0.00213674
228104 0.00176105
228486 0.00177671
228867 0.00195730
229248 0.00225600
229438 0.00244817
229629 0.00267014
229820 0.00292362
230010 0.00320952
230246 0.00360953
230483 0.00405571
230719 0.00453668
230955 0.00502864
231428 0.00588332
231900 0.00622621
232373 0.00584648
232845 0.00497022
233790 0.00314013
234778 0.00196402
235765 0.00140690
236259 0.00133012
236753 0.00150853
236999 0.00184789
237246 0.00270215
237370 0.00362428
237493 0.00537758
237555 0.00687777
237617 0.00914577
237678 0.0126785
237740 0.0182012
237820 0.0286990
237900 0.0356578
237981 0.0285695
238061 0.0180150
238154 0.0105195
238248 0.00668483
238341 0.00461588
238434 0.00340647
238621 0.00213726
238807 0.00152340
238994 0.00117823
239180 0.000962888
239553 0.000713687
240300 0.000486687
241046 0.000378251
242538 0.000267901
244031 0.000210388
247015 0.000154120
250000 0.000136617
250000 0.000136617
252808 0.000168681
253510 0.000208380
254211 0.000317138
254562 0.000460027
254913 0.000830577
255089 0.00128993
255176 0.00170440
255264 0.00238087
255352 0.00359299
255396 0.00458947
255440 0.00606141
255484 0.00835795
255527 0.0121409
255571 0.0188011
255615 0.0308427
255658 0.0491122
255700 0.0612090
255743 0.0488558
255786 0.0304660
255836 0.0173950
255886 0.0107519
255936 0.00718960
255986 0.00512191
256036 0.00382802
256086 0.00297366
256187 0.00195393
256287 0.00139548
256387 0.00105811
256587 0.000689641
256787 0.000504194
256987 0.000398597
257388 0.000290271
257788 0.000240204
258189 0.000214630
258990 0.000195174
260591 0.000206531
262193 0.000258057
263795 0.000368374
264596 0.000466457
265397 0.000620676
266197 0.000880092
266998 0.00135808
267399 0.00175706
267799 0.00234763
268200 0.00324513
268400 0.00385893
268500 0.00421653
268600 0.00461062
268738 0.00521235
268875 0.00587919
269013 0.00659468
269150 0.00732520
269425 0.00859511
269700 0.00911589
269975 0.00857541
270250 0.00729760
270800 0.00459645
271336 0.00290762
271871 0.00195918
272407 0.00142426
272943 0.00112705
273478 0.00100185
274014 0.00110290
274282 0.00135198
274416 0.00159837
274549 0.00200958
274683 0.00274205
274817 0.00418468
274884 0.00546461
274951 0.00746578
275018 0.0107337
275085 0.0161178
275163 0.0254829
275240 0.0316931
275318 0.0253768
275396 0.0159647
275458 0.0109206
275520 0.00774702
275582 0.00572757
275644 0.00440182
275768 0.00285249
275892 0.00203021
276015 0.00154482
276139 0.00123514
276387 0.000876205
276635 0.000682207
276883 0.000564427
277378 0.000432859
278369 0.000326922
279360 0.000302230
280351 0.000338634
280847 0.000394610
281342 0.000504423
281838 0.000736558
282085 0.000956139
282333 0.00132822
282581 0.00202896
282705 0.00263448
282829 0.00357602
282952 0.00514733
283076 0.00801408
283200 0.0138603
283262 0.0190781
283293 0.0226186
283324 0.0269126
283346 0.0304670
283368 0.0344096
283390 0.0386446
283412 0.0429748
283456 0.0505272
283500 0.0536652
283588 0.0429393
283676 0.0268772
283778 0.0154462
283880 0.00959101
283981 0.00643026
284083 0.00458801
284185 0.00343400
284287 0.00267006
284490 0.00175769
284693 0.00125687
284897 0.000953908
285304 0.000622678
285711 0.000456067
286118 0.000361809
286932 0.000269280
287745 0.000238975
288559 0.000261819
289373 0.000486304
289577 0.000711220
289780 0.00129487
289882 0.00201467
289984 0.00370432
290035 0.00555411
290085 0.00924509
290111 0.0126179
290136 0.0180465
290162 0.0272912
290187 0.0434133
290214 0.0693709
290240 0.0866665
290267 0.0693494
290293 0.0433978
290310 0.0319569
290326 0.0239625
290359 0.0144744
290392 0.00953491
290425 0.00672028
290458 0.00498744
290491 0.00385261
290557 0.00251332
290623 0.00178685
290689 0.00135063
290821 0.000876849
290953 0.000639096
291085 0.000503713
291349 0.000364424
291613 0.000299253
291877 0.000265156
292405 0.000236997
293460 0.000243272
294516 0.000297707
295572 0.000422607
296100 0.000538875
296628 0.000730204
297155 0.00107432
297419 0.00135813
297683 0.00177955
297947 0.00243889
298211 0.00353483
298475 0.00548030
298607 0.00700360
298673 0.00795831
298739 0.00905933
298802 0.0102492
298864 0.0115667
298927 0.0129815
298990 0.0144275
299115 0.0169489
299240 0.0179911
299491 0.0144009
299741 0.00903845
300030 0.00523339
300319 0.00328214
300608 0.00223118
300897 0.00161994
301186 0.00123963
301475 0.000989994
302053 0.000698880
302631 0.000549259
303209 0.000470827
304365 0.000429840
305521 0.000507201
306099 0.000605795
306677 0.000775588
307255 0.00107652
307833 0.00165242
308122 0.00214560
308411 0.00289105
308700 0.00405172
308845 0.00486111
308917 0.00533777
308989 0.00586570
309083 0.00663142
309177 0.00748064
309271 0.00839253
309365 0.00932336
309552 0.0109456
309740 0.0116128
310116 0.00928878
310491 0.00582663
310826 0.00379129
311161 0.00257906
311496 0.00184460
311832 0.00137896
312502 0.000855151
313172 0.000587289
313842 0.000433708
314512 0.000338196
315853 0.000231952
317193 0.000180176
318534 0.000158388
319204 0.000160213
319874 0.000184821
320544 0.000340940
320879 0.000924300
320963 0.00147712
321047 0.00288232
321089 0.00457581
321131 0.00843693
321152 0.0125251
321173 0.0203066
321183 0.0270912
321194 0.0374170
321204 0.0540382
321215 0.0805132
321227 0.128952
321240 0.160901
321253 0.128532
321266 0.0805008
321278 0.0507676
321290 0.0336235
321302 0.0235117
321314 0.0172699
321338 0.0103186
321362 0.00684334
321410 0.00364615
321459 0.00228125
321555 0.00116996
321652 0.000739397
321845 0.000411487
322038 0.000291591
322425 0.000205576
322811 0.000178550
323584 0.000172392
324356 0.000197327
325129 0.000262541
325515 0.000325838
325902 0.000433063
326288 0.000633352
326481 0.000804727
326674 0.00106861
326868 0.00150274
327061 0.00227804
327254 0.00381002
327351 0.00513628
327447 0.00707439
327594 0.0112692
327740 0.0140584
327887 0.0112541
328033 0.00706573
328128 0.00515643
328223 0.00384514
328413 0.00231913
328603 0.00154091
328793 0.00110452
328983 0.000839232
329173 0.000667906
329553 0.000470537
329933 0.000369376
330313 0.000315372
331074 0.000281881
331834 0.000324236
332214 0.000387331
332594 0.000508478
332974 0.000760986
333164 0.000998398
333354 0.00140057
333544 0.00216072
333639 0.00282122
333734 0.00385710
333829 0.00560578
333924 0.00885923
333972 0.0116048
334019 0.0157148
334067 0.0220499
334090 0.0264448
334114 0.0318499
334146 0.0407162
334161 0.0457412
334177 0.0508470
334193 0.0557176
334209 0.0597832
334240 0.0635042
334303 0.0508479
334366 0.0318785
334419 0.0212075
334472 0.0146835
334525 0.0106407
334578 0.00805271
334684 0.00514696
334790 0.00375989
334896 0.00320760
335002 0.00355257
335056 0.00447941
335109 0.00700422
335135 0.00992673
335162 0.0159829
335175 0.0216847
335188 0.0310811
335201 0.0478253
335215 0.0781908
335227 0.124581
335240 0.155171
335253 0.124129
335266 0.0780806
335277 0.0504628
335289 0.0341654
335300 0.0243690
335312 0.0182359
335335 0.0112999
335358 0.00777572
335404 0.00447257
335451 0.00302351
335543 0.00179027
335636 0.00127271
335821 0.000823290
336006 0.000622188
336376 0.000436884
336746 0.000355009
337487 0.000300992
338227 0.000323292
338968 0.000429631
339338 0.000542415
339708 0.000739985
340078 0.00111928
340264 0.00145067
340449 0.00197083
340634 0.00284754
340819 0.00447104
340911 0.00583394
341004 0.00785944
341097 0.0109597
341143 0.0130911
341189 0.0157048
341220 0.0177795
341252 0.0200808
341283 0.0225528
341315 0.0250720
341346 0.0274674
341377 0.0294784
341440 0.0313043
341566 0.0250467
341691 0.0156791
341781 0.0110619
341870 0.00800786
341959 0.00598209
342049 0.00460774
342228 0.00295009
342407 0.00204452
342586 0.00150254
342764 0.00115457
343122 0.000751786
343480 0.000537156
343838 0.000409825
344553 0.000273219
345269 0.000206014
345984 0.000168913
347415 0.000134746
348846 0.000127557
350277 0.000146011
351709 0.000265892
352066 0.000379868
352424 0.000670116
352603 0.00102262
352692 0.00133579
352782 0.00183758
352871 0.00271379
352961 0.00442630
353005 0.00594867
353050 0.00834893
353095 0.0123071
353140 0.0189398
353190 0.0302515
353240 0.0377663
353290 0.0302141
353341 0.0189310
353394 0.0113548
353447 0.00727171
353501 0.00497888
353554 0.00360790
353608 0.00273228
353661 0.00214542
353768 0.00143483
353875 0.00104045
353982 0.000800292
354196 0.000536635
354410 0.000404075
354623 0.000329321
355051 0.000255517
355906 0.000216452
356761 0.000231784
357617 0.000291783
358044 0.000350378
358472 0.000447552
358899 0.000623631
359327 0.000991751
359541 0.00134595
359755 0.00195662
359968 0.00310296
360182 0.00538084
360361 0.00850853
360540 0.0105900
360719 0.00850920
360898 0.00539983
361050 0.00364359
361202 0.00257506
361354 0.00191865
361506 0.00150048
361811 0.00103523
362115 0.000810624
362723 0.000652000
363332 0.000678802
363940 0.000862741
364244 0.00104557
364548 0.00133744
364853 0.00182350
365157 0.00269121
365461 0.00438575
365613 0.00583317
365765 0.00792484
366003 0.0125571
366240 0.0156334
366478 0.0125367
366716 0.00792344
366868 0.00586143
367019 0.00443903
367322 0.00278784
367625 0.00197040
367928 0.00156288
368231 0.00142061
368534 0.00160383
368685 0.00197088
368837 0.00288205
368912 0.00385481
368988 0.00568467
369026 0.00723912
369064 0.00956497
369102 0.0131646
369140 0.0187221
369190 0.0295353
369240 0.0367173
369290 0.0294865
369341 0.0186869
369388 0.0120220
369436 0.00817891
369484 0.00591184
369531 0.00450291
369627 0.00294951
369722 0.00217254
369913 0.00146890
370103 0.00118673
370485 0.00102924
370866 0.00111495
371248 0.00142536
371629 0.00216605
371820 0.00289118
372011 0.00412605
372201 0.00637224
372392 0.0106199
372566 0.0168257
372740 0.0209503
372914 0.0167924
373088 0.0105858
373214 0.00749947
373339 0.00546892
373465 0.00412920
373590 0.00322394
373841 0.00213856
374092 0.00155159
374343 0.00120572
374594 0.000990257
375097 0.000765596
375599 0.000703371
376101 0.000815275
376352 0.00102062
376477 0.00121613
376603 0.00153905
376729 0.00211517
376854 0.00326406
376917 0.00430279
376980 0.00596170
377042 0.00875271
377105 0.0135238
377173 0.0213624
377240 0.0265626
377308 0.0212845
377376 0.0134109
377426 0.00942744
377477 0.00684042
377527 0.00515088
377577 0.00401622
377677 0.00266436
377778 0.00193426
377878 0.00150082
377979 0.00122441
378179 0.000907493
378581 0.000646747
378983 0.000553751
379786 0.000519902
380589 0.000578852
381392 0.000732758
382196 0.00109356
382597 0.00147320
382999 0.00220633
383200 0.00285592
383400 0.00388284
383601 0.00558950
383802 0.00848548
384021 0.0132979
384240 0.0165047
384459 0.0133259
384678 0.00857234
384838 0.00619219
384998 0.00464467
385319 0.00297271
385639 0.00220399
385959 0.00182506
386600 0.00155923
387240 0.00158356
387990 0.00179172
388365 0.00193935
388740 0.00210000
389490 0.00239161
390240 0.00251171
391740 0.00210358
392490 0.00190028
392865 0.00199857
393053 0.00223208
393240 0.00285054
393336 0.00355444
393432 0.00493368
393480 0.00614771
393528 0.00802612
393577 0.0110537
393625 0.0159575
393682 0.0247778
393740 0.0306351
393798 0.0247241
393856 0.0158971
393894 0.0117474
393933 0.00893569
394011 0.00570404
394088 0.00407630
394166 0.00316674
394321 0.00225373
394475 0.00183463
394785 0.00149609
395095 0.00142516
395405 0.00152586
395715 0.00186108
396025 0.00269429
396180 0.00350548
396335 0.00478661
396538 0.00725901
396740 0.00889307
396943 0.00718954
397146 0.00466395
397312 0.00327752
397477 0.00240937
397643 0.00185931
397808 0.00149718
398139 0.00107034
398470 0.000838673
399132 0.000605656
399793 0.000494306
401117 0.000397453
402441 0.000375047
403764 0.000411448
405088 0.000559555
405750 0.000745314
406411 0.00115371
406742 0.00156124
407073 0.00228806
407404 0.00371834
407570 0.00495248
407735 0.00675155
407988 0.0106590
408240 0.0132529
408493 0.0106366
408746 0.00673729
408937 0.00472852
409129 0.00343559
409320 0.00260010
409511 0.00204468
409893 0.00139283
410276 0.00105065
411041 0.000742121
411806 0.000642729
412570 0.000653244
413335 0.000793493
413718 0.000967909
414100 0.00132505
414291 0.00165432
414483 0.00219377
414674 0.00313354
414865 0.00482431
415053 0.00741674
415240 0.00914272
415428 0.00742449
415616 0.00485603
415768 0.00346791
415919 0.00260444
416222 0.00171839
416525 0.00133199
416828 0.00114852
417434 0.00102574
418040 0.00103897
419040 0.00118543
419540 0.00128975
420040 0.00140214
421040 0.00160223
422040 0.00167658
424040 0.00133368
426040 0.000846937
427944 0.000547713
429848 0.000375108
431752 0.000273129
433656 0.000209759
437464 0.000140608
441273 0.000108142
445081 9.43211E-05
448889 9.63475E-05
450793 0.000107649
452697 0.000138864
453649 0.000176535
454601 0.000265937
455077 0.000370120
455315 0.000461484
455553 0.000607857
455791 0.000865347
456029 0.00138199
456148 0.00185683
456267 0.00263439
456386 0.00398742
456505 0.00641509
456623 0.0101567
456740 0.0126442
456858 0.0101443
456976 0.00640839
457085 0.00416696
457193 0.00285854
457302 0.00208112
457410 0.00159804
457627 0.00107169
457845 0.000821436
458279 0.000642458
458713 0.000662498
459147 0.000849921
459364 0.00104300
459582 0.00135982
459799 0.00190687
460016 0.00293404
460124 0.00380320
460233 0.00510250
460342 0.00710339
460450 0.0101863
460595 0.0161932
460740 0.0201827
460886 0.0161514
461031 0.0101332
461128 0.00732637
461225 0.00542108
461420 0.00323413
461614 0.00213382
461808 0.00152167
462002 0.00115114
462197 0.000912252
462585 0.000636567
462974 0.000493723
463362 0.000414938
464139 0.000353729
464916 0.000374535
465693 0.000500974
466082 0.000649790
466470 0.000937916
466664 0.00118640
466859 0.00156408
467053 0.00215728
467247 0.00309340
467494 0.00484597
467740 0.00601392
467987 0.00485346
468233 0.00311940
468404 0.00228744
468576 0.00173648
468919 0.00113588
469261 0.000875091
469604 0.000789855
469947 0.000846677
470290 0.00112462
470461 0.00144071
470632 0.00202435
470804 0.00318732
470889 0.00419077
470975 0.00564814
471108 0.00885287
471240 0.0109799
471373 0.00881854
471506 0.00559475
471634 0.00359386
471761 0.00244846
471889 0.00177519
472017 0.00135818
472272 0.000898882
472527 0.000669049
473038 0.000460985
473548 0.000377591
474569 0.000330318
475591 0.000349777
476612 0.000420197
477633 0.000576739
478143 0.000727617
478654 0.000997823
479165 0.00157184
479420 0.00213049
479675 0.00305332
479958 0.00458830
480240 0.00563168
480523 0.00470439
480806 0.00329864
481040 0.00255140
481273 0.00212462
481740 0.00179003
482365 0.00181435
482990 0.00204448
483615 0.00229298
484240 0.00238631
485490 0.00191745
486740 0.00129692
487261 0.00115816
487783 0.00116954
488043 0.00130496
488304 0.00167924
488434 0.00207559
488564 0.00278739
488695 0.00416143
488825 0.00694775
488933 0.0107409
489040 0.0132550
489148 0.0106806
489256 0.00684453
489340 0.00481864
489424 0.00352681
489508 0.00269494
489592 0.00214226
489760 0.00148619
489928 0.00112950
490263 0.000770913
490599 0.000597469
491271 0.000428883
491942 0.000344238
493285 0.000256933
494628 0.000215020
495971 0.000199070
497314 0.000212809
497986 0.000241977
498657 0.000309993
499329 0.000496901
499664 0.000734943
499832 0.000952923
500000 0.00131127
500000 0.00131182
500001 0.00131321
500001 0.00131460
500002 0.00131711
500004 0.00132244
500008 0.00133290
500015 0.00135424
500030 0.00139860
500060 0.00149493
500119 0.00172199
500238 0.00236840
500356 0.00343554
500475 0.00522680
500608 0.00825490
500740 0.0102686
500873 0.00824656
501006 0.00522433
501095 0.00381210
501184 0.00285626
501363 0.00176801
501541 0.00123077
501720 0.000942174
502076 0.000687690
502433 0.000632702
502790 0.000709400
503147 0.000968094
503325 0.00122719
503503 0.00165563
503682 0.00239008
503860 0.00366472
504050 0.00575387
504240 0.00713998
504431 0.00572796
504621 0.00362360
504741 0.00268660
504861 0.00203500
505102 0.00126554
505342 0.000865938
505582 0.000638209
506063 0.000405102
506544 0.000295204
507024 0.000234987
507505 0.000198593
508466 0.000159209
510389 0.000131613
512312 0.000129489
514234 0.000143068
516157 0.000180774
517118 0.000222036
518079 0.000311582
518560 0.000409863
519041 0.000625836
519281 0.000855099
519521 0.00130981
519642 0.00172540
519762 0.00240303
519882 0.00357993
520002 0.00568585
520121 0.00894458
520240 0.0111178
520359 0.00895924
520478 0.00572334
520580 0.00388267
520682 0.00276941
520784 0.00208896
520886 0.00165784
521090 0.00118294
521293 0.000958935
521701 0.000814949
522109 0.000866641
522516 0.00107921
522924 0.00155205
523128 0.00197508
523331 0.00262974
523535 0.00367462
523739 0.00535217
523990 0.00841563
524115 0.00985653
524240 0.0104546
524491 0.00841157
524741 0.00535429
524911 0.00391268
525080 0.00293946
525419 0.00183546
525758 0.00129221
526097 0.00100089
526775 0.000743181
527453 0.000683027
528130 0.000751598
528808 0.00101763
529147 0.00132421
529486 0.00193184
529825 0.00333287
529995 0.00475504
530164 0.00715024
530352 0.0111869
530540 0.0138761
530728 0.0111932
530916 0.00717296
531144 0.00422224
531372 0.00276345
531600 0.00200218
531828 0.00157243
532284 0.00115106
532740 0.000977413
533990 0.000893211
534615 0.000929893
535240 0.000986203
535865 0.00104930
536490 0.00110804
537740 0.00117698
540023 0.00118703
540593 0.00127753
541164 0.00156073
541449 0.00188039
541734 0.00247959
542020 0.00369404
542162 0.00475499
542305 0.00630953
542523 0.00969368
542740 0.0119352
542958 0.00963265
543176 0.00620575
543330 0.00453326
543483 0.00341723
543790 0.00215979
544097 0.00153399
544404 0.00118377
545018 0.000825962
545632 0.000654627
546860 0.000506691
548088 0.000474170
549316 0.000537333
549930 0.000626577
550544 0.000790478
551158 0.00109904
551772 0.00171572
552386 0.00297304
552693 0.00389545
552847 0.00435835
553000 0.00474003
553000 0.00649621
553001 0.00649440
553041 0.00641840
553081 0.00634650
553121 0.00627850
553161 0.00621420
553201 0.00615320
553242 0.00609540
553282 0.00604060
553322 0.00598870
553362 0.00593940
553402 0.00589250
553442 0.00584800
553482 0.00580570
553522 0.00576540
553562 0.00572710
553602 0.00569060
553642 0.00565580
553682 0.00562260
553722 0.00559100
553762 0.00556080
553802 0.00553190
553842 0.00550440
553882 0.00547800
553922 0.00545280
553962 0.00542870
554002 0.00540550
554042 0.00538340
554083 0.00536220
554123 0.00534180
554163 0.00532230
554203 0.00530350
554243 0.00528550
554283 0.00526820
554323 0.00525150
554363 0.00523550
554403 0.00522010
554443 0.00520530
554483 0.00519100
554523 0.00517730
554563 0.00516400
554603 0.00515130
554643 0.00513890
554683 0.00512710
554723 0.00511560
554763 0.00510450
554803 0.00509380
554843 0.00508350
554884 0.00507350
554924 0.00506380
554964 0.00505450
555004 0.00504540
555044 0.00503670
555084 0.00502820
555124 0.00502000
555164 0.00501200
555204 0.00500430
555244 0.00499690
555284 0.00498960
555324 0.00498260
555364 0.00497580
555404 0.00496920
555444 0.00496280
555484 0.00495650
555524 0.00495050
555564 0.00494460
555604 0.00493890
555644 0.00493340
555684 0.00492800
555724 0.00492270
555765 0.00491770
555805 0.00491270
555845 0.00490790
555885 0.00490320
555925 0.00489860
555965 0.00489420
556005 0.00488990
556045 0.00488570
556125 0.00487760
556205 0.00486990
556285 0.00486260
556365 0.00485570
556445 0.00484910
556485 0.00484590
556526 0.00484280
556606 0.00483680
556706 0.00482970
556806 0.00482310
556906 0.00481680
557006 0.00481090
557206 0.00480010
557407 0.00479040
557607 0.00478180
557707 0.00477790
557807 0.00477410
558007 0.00476730
558208 0.00476120
558408 0.00475570
558608 0.00475090
558808 0.00474670
559008 0.00474290
559209 0.00473970
559409 0.00473690
559609 0.00473460
559810 0.00473260
560010 0.00473110
560210 0.00473000
560410 0.00472940
560610 0.00472910
560811 0.00472930
560911 0.00472950
561211 0.00473110
561411 0.00473280
561612 0.00473520
561812 0.00473830
562012 0.00474240
562212 0.00474750
562413 0.00475410
562513 0.00475800
562613 0.00476250
562658 0.00476470
562749 0.00476950
562839 0.00477490
562929 0.00478110
563019 0.00478800
563109 0.00479600
563199 0.00480510
563289 0.00481560
563379 0.00482790
563424 0.00483480
563469 0.00484230
563514 0.00485040
563559 0.00485930
563604 0.00486900
563649 0.00487970
563694 0.00489140
563739 0.00490430
563784 0.00491870
563829 0.00493460
563874 0.00495230
563897 0.00496200
563919 0.00497220
563942 0.00498300
563964 0.00499450
563982 0.00500420
563991 0.00500930
564000 0.00501450
564018 0.00502520
564036 0.00503650
564054 0.00504840
564072 0.00506100
564090 0.00507430
564099 0.00508120
564108 0.00508830
564117 0.00509560
564126 0.00510310
564135 0.00511080
564144 0.00511880
564153 0.00512700
564162 0.00513540
564172 0.00514410
564180 0.00515300
564190 0.00516220
564198 0.00517170
564208 0.00518150
564216 0.00519160
564226 0.00520200
564234 0.00521280
564244 0.00522390
564253 0.00523530
564262 0.00524720
564271 0.00525940
564280 0.00527200
564289 0.00528510
564298 0.00529860
564307 0.00531260
564316 0.00532700
564325 0.00534200
564334 0.00535750
564343 0.00537350
564352 0.00539020
564361 0.00540740
564370 0.00542530
564379 0.00544380
564388 0.00546310
564397 0.00548310
564406 0.00550380
564415 0.00552540
564424 0.00554780
564433 0.00557110
564442 0.00559530
564451 0.00562050
564460 0.00564680
564469 0.00567410
564478 0.00570260
564487 0.00573230
564496 0.00576320
564505 0.00579550
564514 0.00582910
564523 0.00586430
564532 0.00590100
564541 0.00593930
564550 0.00597940
564559 0.00602130
564568 0.00606510
564577 0.00611090
564586 0.00615880
564595 0.00620900
564604 0.00626160
564613 0.00631660
564622 0.00637430
564631 0.00643470
564640 0.00649800
564649 0.00656440
564658 0.00663400
564667 0.00670700
564676 0.00678350
564685 0.00686360
564694 0.00694770
564703 0.00703570
564712 0.00712800
564721 0.00722450
564730 0.00732550
564739 0.00743120
564748 0.00754150
564757 0.00765670
564766 0.00777670
564775 0.00790150
564784 0.00803120
564793 0.00816570
564802 0.00830470
564811 0.00844800
564820 0.00859540
564829 0.00874630
564838 0.00890010
564847 0.00905620
564856 0.00921370
564865 0.00937170
564874 0.00952890
564883 0.00968400
564887 0.00976030
564892 0.00983560
564896 0.00990960
564901 0.00998210
564905 0.0100530
564910 0.0101220
564914 0.0101880
564919 0.0102530
564923 0.0103140
564928 0.0103730
564932 0.0104290
564937 0.0104820
564941 0.0105310
564946 0.0105760
564950 0.0106180
564955 0.0106550
564960 0.0106880
564964 0.0107170
564968 0.0107410
564973 0.0107610
564978 0.0107760
564982 0.0107860
564986 0.0107910
564989 0.0107920
564991 0.0107920
564996 0.0107871
564996 0.0107859
564997 0.0107851
564997 0.0107839
564998 0.0107831
564998 0.0107819
564999 0.0107811
564999 0.0107799
565000 0.0107791
565000 0.0107768
565001 0.0107752
565001 0.0107739
565002 0.0107731
565002 0.0107709
565003 0.0107701
565003 0.0107679
565004 0.0107671
565004 0.0107636
565009 0.0107450
565014 0.0107210
565018 0.0106930
565022 0.0106610
565027 0.0106240
565032 0.0105830
565036 0.0105390
565041 0.0104900
565045 0.0104380
565050 0.0103830
565054 0.0103250
565059 0.0102640
565063 0.0102000
565068 0.0101340
565072 0.0100650
565077 0.00999480
565081 0.00992260
565086 0.00984900
565090 0.00977400
565095 0.00969800
565099 0.00962100
565104 0.00954330
565108 0.00946500
565113 0.00938640
565117 0.00930760
565126 0.00915000
565135 0.00899320
565144 0.00883820
565153 0.00868580
565162 0.00853660
565171 0.00839120
565180 0.00824990
565189 0.00811310
565198 0.00798090
565207 0.00785350
565216 0.00773100
565225 0.00761340
565234 0.00750050
565243 0.00739250
565252 0.00728910
565261 0.00719020
565270 0.00709580
565279 0.00700570
565288 0.00691960
565297 0.00683750
565306 0.00675920
565315 0.00668450
565324 0.00661330
565333 0.00654530
565342 0.00648050
565351 0.00641870
565360 0.00635970
565369 0.00630350
565378 0.00624980
565387 0.00619850
565396 0.00614950
565405 0.00610280
565414 0.00605810
565423 0.00601540
565432 0.00597460
565441 0.00593550
565450 0.00589820
565459 0.00586240
565468 0.00582820
565477 0.00579540
565486 0.00576400
565495 0.00573380
565504 0.00570490
565513 0.00567720
565522 0.00565060
565531 0.00562510
565540 0.00560060
565549 0.00557700
565558 0.00555440
565567 0.00553260
565576 0.00551160
565585 0.00549150
565594 0.00547210
565603 0.00545340
565612 0.00543540
565621 0.00541810
565630 0.00540140
565639 0.00538520
565648 0.00536970
565657 0.00535470
565666 0.00534020
565675 0.00532620
565684 0.00531270
565693 0.00529970
565702 0.00528710
565711 0.00527490
565720 0.00526310
565729 0.00525170
565738 0.00524070
565748 0.00523000
565756 0.00521960
565766 0.00520960
565774 0.00519990
565784 0.00519050
565792 0.00518140
565802 0.00517260
565810 0.00516410
565820 0.00515580
565829 0.00514770
565838 0.00513990
565847 0.00513230
565856 0.00512490
565865 0.00511780
565874 0.00511080
565883 0.00510410
565892 0.00509750
565901 0.00509110
565910 0.00508500
565928 0.00507310
565946 0.00506180
565964 0.00505120
565982 0.00504110
566000 0.00503150
566009 0.00502690
566018 0.00502250
566036 0.00501380
566058 0.00500370
566081 0.00499410
566103 0.00498510
566112 0.00498160
566153 0.00496710
566194 0.00495400
566244 0.00493970
566294 0.00492720
566344 0.00491600
566394 0.00490620
566444 0.00489750
566494 0.00488970
566544 0.00488280
566594 0.00487670
566694 0.00486640
566794 0.00485820
566874 0.00485300
566954 0.00484870
567035 0.00484520
567115 0.00484250
567195 0.00484040
567275 0.00483890
567435 0.00483730
567595 0.00483730
567755 0.00483870
567915 0.00484140
567995 0.00484310
568075 0.00484500
568155 0.00484730
568235 0.00484970
568315 0.00485240
568395 0.00485530
568475 0.00485850
568556 0.00486190
568636 0.00486550
568716 0.00486930
568796 0.00487330
568876 0.00487760
568956 0.00488210
569036 0.00488680
569116 0.00489180
569196 0.00489700
569276 0.00490240
569356 0.00490810
569436 0.00491410
569516 0.00492030
569596 0.00492690
569676 0.00493370
569756 0.00494080
569836 0.00494820
569916 0.00495600
569996 0.00496410
570076 0.00497250
570156 0.00498130
570236 0.00499050
570317 0.00500010
570397 0.00501020
570477 0.00502070
570557 0.00503160
570637 0.00504300
570717 0.00505500
570797 0.00506750
570877 0.00508050
570957 0.00509420
571037 0.00510850
571117 0.00512350
571197 0.00513920
571277 0.00515560
571357 0.00517280
571437 0.00519080
571517 0.00520970
571597 0.00522960
571677 0.00525040
571757 0.00527230
571837 0.00529530
571918 0.00531940
571998 0.00534480
572078 0.00537150
572158 0.00539960
572238 0.00542910
572318 0.00546030
572398 0.00549300
572478 0.00552750
572558 0.00556390
572638 0.00560220
572718 0.00564250
572798 0.00568510
572878 0.00572990
572958 0.00577710
573038 0.00582680
573118 0.00587910
573198 0.00593420
573278 0.00599210
573358 0.00605290
573438 0.00611670
573518 0.00618360
573599 0.00625350
573679 0.00632660
573759 0.00640260
573839 0.00648160
573919 0.00656340
573999 0.00664770
574079 0.00673430
574159 0.00682270
574239 0.00691250
574319 0.00700290
574399 0.00709330
574479 0.00718290
574559 0.00727050
574639 0.00735520
574719 0.00743570
574799 0.00751080
574879 0.00757930
574959 0.00763980
574999 0.00766680
575039 0.00769130
575079 0.00771320
575119 0.00773250
575160 0.00774910
575200 0.00776270
575240 0.00777350
575280 0.00778120
575320 0.00778590
575360 0.00778750
575380 0.00778710
575390 0.00778660
575400 0.00778600
575440 0.00778140
575480 0.00777380
575520 0.00776320
575560 0.00774970
575600 0.00773330
575640 0.00771410
575680 0.00769230
575720 0.00766790
575760 0.00764110
575800 0.00761200
575840 0.00758080
575880 0.00754770
575920 0.00751270
575960 0.00747600
575964 0.00747230
575968 0.00746850
575972 0.00746470
575976 0.00746090
575980 0.00745710
575984 0.00745330
575988 0.00744950
575992 0.00744560
575996 0.00744180
576000 0.00743790
576004 0.00743400
576008 0.00743010
576012 0.00742620
576016 0.00742220
576020 0.00741830
576024 0.00741430
576028 0.00741040
576032 0.00740640
576036 0.00740240
576040 0.00739840
576080 0.00735770
576120 0.00731600
576160 0.00727340
576200 0.00723010
576240 0.00718610
576280 0.00714180
576320 0.00709700
576360 0.00705210
576400 0.00700710
576440 0.00696200
576480 0.00691710
576520 0.00687230
576560 0.00682780
576600 0.00678370
576640 0.00674000
576680 0.00669670
576720 0.00665390
576760 0.00661180
576800 0.00657020
576841 0.00652930
576881 0.00648900
576921 0.00644950
576961 0.00641070
577001 0.00637260
577041 0.00633530
577121 0.00626290
577201 0.00619370
577281 0.00612760
577361 0.00606460
577441 0.00600460
577521 0.00594750
577601 0.00589330
577681 0.00584190
577761 0.00579310
577841 0.00574680
577921 0.00570300
578001 0.00566150
578081 0.00562220
578161 0.00558500
578241 0.00554980
578321 0.00551650
578401 0.00548500
578482 0.00545520
578562 0.00542700
578642 0.00540030
578722 0.00537500
578802 0.00535120
578882 0.00532860
578962 0.00530740
579042 0.00528730
579122 0.00526830
579202 0.00525040
579282 0.00523360
579362 0.00521770
579442 0.00520290
579522 0.00518890
579602 0.00517590
579682 0.00516380
579762 0.00515250
579842 0.00514210
579922 0.00513250
580002 0.00512380
580082 0.00511590
580163 0.00510890
580243 0.00510270
580323 0.00509750
580403 0.00509310
580483 0.00508980
580563 0.00508750
580643 0.00508630
580683 0.00508610
580703 0.00508610
580723 0.00508630
580803 0.00508760
580883 0.00509030
580963 0.00509470
581043 0.00510090
581123 0.00510930
581203 0.00512000
581283 0.00513360
581363 0.00515060
581403 0.00516060
581443 0.00517160
581483 0.00518390
581523 0.00519760
581563 0.00521280
581603 0.00522960
581643 0.00524840
581683 0.00526930
581724 0.00529260
581764 0.00531860
581804 0.00534770
581844 0.00538040
581884 0.00541710
581924 0.00545860
581964 0.00550560
582004 0.00555910
582024 0.00558850
582044 0.00562010
582064 0.00565390
582084 0.00569010
582104 0.00572900
582124 0.00577090
582144 0.00581600
582164 0.00586470
582184 0.00591740
582204 0.00597430
582224 0.00603620
582244 0.00610340
582264 0.00617660
582284 0.00625660
582304 0.00634410
582324 0.00644020
582344 0.00654580
582364 0.00666240
582384 0.00679150
582404 0.00693480
582424 0.00709440
582444 0.00727290
582454 0.00737020
582464 0.00747330
582474 0.00758280
582484 0.00769920
582496 0.00785050
582508 0.00801390
582510 0.00803970
582516 0.00812710
582522 0.00821810
582528 0.00831280
582534 0.00841140
582540 0.00851430
582546 0.00862150
582552 0.00873340
582558 0.00885010
582564 0.00897210
582571 0.00909950
582577 0.00923280
582583 0.00937220
582589 0.00951810
582595 0.00967100
582601 0.00983120
582607 0.00999930
582613 0.0101760
582619 0.0103610
582625 0.0105550
582631 0.0107600
582637 0.0109750
582643 0.0112010
582649 0.0114400
582655 0.0116920
582661 0.0119570
582667 0.0122380
582673 0.0125340
582679 0.0128470
582685 0.0131790
582692 0.0135300
582698 0.0139020
582704 0.0142970
582710 0.0147150
582716 0.0151600
582722 0.0156330
582728 0.0161350
582734 0.0166700
582740 0.0172400
582746 0.0178460
582752 0.0184930
582758 0.0191830
582764 0.0199180
582770 0.0207030
582776 0.0215410
582782 0.0224340
582788 0.0233870
582794 0.0244030
582800 0.0254860
582806 0.0266380
582812 0.0278620
582819 0.0291620
582825 0.0305360
582831 0.0319870
582837 0.0335130
582843 0.0351090
582849 0.0367710
582855 0.0384900
582861 0.0402530
582867 0.0420440
582873 0.0438420
582879 0.0456220
582885 0.0473550
582891 0.0490060
582897 0.0505390
582903 0.0519150
582909 0.0530950
582915 0.0540430
582921 0.0547300
582924 0.0549670
582927 0.0551300
582930 0.0552180
582932 0.0552340
582933 0.0552340
582933 0.0552284
582937 0.0551660
582940 0.0550270
582943 0.0548130
582946 0.0545270
582949 0.0541710
582952 0.0537490
582955 0.0532630
582958 0.0527362
582958 0.0525568
582961 0.0521170
582964 0.0514660
582967 0.0507700
582970 0.0500330
582973 0.0492590
582976 0.0484550
582979 0.0476240
582982 0.0467710
582985 0.0459010
582988 0.0450180
582991 0.0441250
582994 0.0432280
582997 0.0423570
582997 0.0422280
582998 0.0421560
582998 0.0418690
582999 0.0417970
582999 0.0415990
583000 0.0415270
583000 0.0413300
583001 0.0412580
583001 0.0410610
583002 0.0409890
583002 0.0407030
583003 0.0406310
583003 0.0405034
583006 0.0396440
583009 0.0387640
583012 0.0378940
583015 0.0370360
583018 0.0361920
583021 0.0353640
583024 0.0345510
583027 0.0337550
583030 0.0329770
583033 0.0322170
583036 0.0314760
583039 0.0307540
583042 0.0300500
583045 0.0293660
583048 0.0287000
583051 0.0280540
583054 0.0274260
583057 0.0268170
583061 0.0262260
583064 0.0256530
583067 0.0250970
583070 0.0245580
583073 0.0240370
583076 0.0235310
583079 0.0230420
583085 0.0221090
583091 0.0212340
583097 0.0204140
583103 0.0196460
583109 0.0189250
583115 0.0182500
583121 0.0176170
583127 0.0170230
583133 0.0164650
583139 0.0159400
583145 0.0154480
583151 0.0149840
583157 0.0145480
583163 0.0141370
583169 0.0137500
583175 0.0133850
583181 0.0130400
583188 0.0127150
583194 0.0124070
583200 0.0121160
583206 0.0118400
583212 0.0115790
583218 0.0113310
583224 0.0110960
583230 0.0108730
583236 0.0106610
583242 0.0104600
583248 0.0102680
583254 0.0100850
583260 0.00991140
583266 0.00974560
583272 0.00958750
583278 0.00943660
583284 0.00929240
583290 0.00915470
583296 0.00902300
583302 0.00889700
583309 0.00877640
583315 0.00866080
583321 0.00855010
583327 0.00844400
583333 0.00834210
583339 0.00824440
583345 0.00815050
583351 0.00806030
583357 0.00797370
583363 0.00789030
583369 0.00781010
583375 0.00773290
583381 0.00765860
583387 0.00758690
583393 0.00751790
583399 0.00745130
583405 0.00738710
583411 0.00732520
583417 0.00726540
583423 0.00720760
583429 0.00715180
583436 0.00709790
583442 0.00704580
583448 0.00699540
583454 0.00694660
583460 0.00689940
583466 0.00685370
583472 0.00680940
583478 0.00676650
583484 0.00672490
583490 0.00668470
583496 0.00664560
583502 0.00660770
583508 0.00657090
583514 0.00653530
583520 0.00650060
583526 0.00646700
583532 0.00643430
583538 0.00640260
583544 0.00637170
583550 0.00634170
583557 0.00631250
583563 0.00628420
583569 0.00625660
583575 0.00622970
583581 0.00620360
583587 0.00617810
583593 0.00615330
583599 0.00612920
583605 0.00610570
583611 0.00608270
583623 0.00603860
583635 0.00599670
583647 0.00595680
583659 0.00591870
583671 0.00588250
583677 0.00586500
583684 0.00584790
583696 0.00581490
583711 0.00577580
583726 0.00573870
583741 0.00570370
583756 0.00567050
583786 0.00560910
583817 0.00555380
583847 0.00550360
583877 0.00545800
583907 0.00541650
583938 0.00537860
583968 0.00534380
583998 0.00531180
584028 0.00528230
584059 0.00525520
584089 0.00523000
584119 0.00520660
584149 0.00518500
584180 0.00516480
584210 0.00514590
584240 0.00512830
584270 0.00511190
584301 0.00509640
584331 0.00508190
584391 0.00505550
584452 0.00503200
584512 0.00501100
584573 0.00499210
584633 0.00497510
584694 0.00495970
584754 0.00494570
584815 0.00493300
584875 0.00492130
584936 0.00491050
584966 0.00490550
585057 0.00489160
585117 0.00488310
585193 0.00487340
585268 0.00486450
585344 0.00485640
585420 0.00484890
585495 0.00484190
585571 0.00483550
585646 0.00482960
585722 0.00482400
585873 0.00481400
586024 0.00480520
586176 0.00479750
586327 0.00479060
586478 0.00478440
586629 0.00477880
586780 0.00477370
586932 0.00476920
587083 0.00476500
587234 0.00476110
587385 0.00475760
587536 0.00475430
587688 0.00475130
587839 0.00474850
588141 0.00474360
588444 0.00473920
588746 0.00473540
589049 0.00473210
589351 0.00472920
589654 0.00472660
589956 0.00472430
590258 0.00472230
590561 0.00472050
590863 0.00471880
591166 0.00471740
591468 0.00471620
591771 0.00471500
592073 0.00471410
592376 0.00471320
592678 0.00471240
592980 0.00471180
593283 0.00471120
593888 0.00471030
594493 0.00470980
595097 0.00470940
595702 0.00470930
596307 0.00470930
596912 0.00470960
597517 0.00470990
598122 0.00471040
599029 0.00471140
599936 0.00471260
600000 0.00471270
600000 0.00580000
600100 0.00579980
600226 0.00579955
600867 0.00579827
601269 0.00579746
601571 0.00579686
602074 0.00579585
602175 0.00579565
602276 0.00579545
602730 0.00579454
602831 0.00579434
603538 0.00579292
603741 0.00579252
603943 0.00579211
604196 0.00579161
604450 0.00579110
604551 0.00579090
604754 0.00579049
604956 0.00579009
605363 0.00578927
605769 0.00578846
606024 0.00578795
606533 0.00578693
606787 0.00578643
606940 0.00578612
607298 0.00578540
607553 0.00578489
607706 0.00578459
607808 0.00578438
607961 0.00578408
608217 0.00578357
608422 0.00578316
608678 0.00578264
608883 0.00578223
609396 0.00578121
609601 0.00578080
609652 0.00578070
609909 0.00578018
610166 0.00577967
610320 0.00577936
610680 0.00577864
610989 0.00577802
611093 0.00577781
611402 0.00577720
611723 0.00577655
612497 0.00577501
612731 0.00577454
613584 0.00577283
614051 0.00577190
614440 0.00577112
614830 0.00577034
615220 0.00576956
615533 0.00576893
615924 0.00576815
616240 0.00576752
616501 0.00576700
616709 0.00576658
617023 0.00576595
617128 0.00576574
617389 0.00576522
617756 0.00576449
618070 0.00576386
618174 0.00576365
618479 0.00576304
618792 0.00576242
619108 0.00576178
619424 0.00576115
619660 0.00576068
619892 0.00576022
620445 0.00575911
620608 0.00575878
620713 0.00575857
620924 0.00575815
621135 0.00575773
621663 0.00575667
621822 0.00575636
622140 0.00575572
622457 0.00575509
622669 0.00575466
623040 0.00575392
623624 0.00575275
623943 0.00575211
624156 0.00575169
624581 0.00575084
624847 0.00575031
625167 0.00574967
625434 0.00574913
625700 0.00574860
625860 0.00574828
626021 0.00574796
626395 0.00574721
626930 0.00574614
627091 0.00574582
627252 0.00574550
627412 0.00574518
627680 0.00574464
628056 0.00574389
628432 0.00574314
628647 0.00574271
629077 0.00574185
629292 0.00574142
629670 0.00574066
629993 0.00574001
630101 0.00573980
630424 0.00573915
630694 0.00573861
630856 0.00573829
631073 0.00573785
631776 0.00573645
631993 0.00573601
632209 0.00573558
632318 0.00573536
632660 0.00573468
632905 0.00573419
632986 0.00573403
633122 0.00573376
633231 0.00573354
633421 0.00573316
633808 0.00573238
633917 0.00573217
634353 0.00573129
634540 0.00573092
635101 0.00572980
635917 0.00572817
636082 0.00572784
636355 0.00572729
636793 0.00572641
637232 0.00572554
637451 0.00572510
637780 0.00572444
638126 0.00572375
638436 0.00572313
639014 0.00572197
639428 0.00572114
639978 0.00572004
640255 0.00571949
640365 0.00571927
640531 0.00571894
640697 0.00571861
640974 0.00571805
641085 0.00571783
641583 0.00571683
641805 0.00571639
641921 0.00571616
642586 0.00571483
642809 0.00571438
642920 0.00571416
643199 0.00571360
643477 0.00571305
643755 0.00571249
644089 0.00571182
644312 0.00571138
644480 0.00571104
644703 0.00571059
644982 0.00571004
645206 0.00570959
645373 0.00570925
645765 0.00570847
646045 0.00570791
646213 0.00570757
646381 0.00570724
646676 0.00570665
647665 0.00570467
648171 0.00570366
648425 0.00570315
648762 0.00570248
648931 0.00570214
649184 0.00570163
649845 0.00570031
650297 0.00569941
650410 0.00569918
650750 0.00569850
650864 0.00569827
651033 0.00569793
651146 0.00569771
651657 0.00569669
651770 0.00569646
652290 0.00569542
652717 0.00569457
652973 0.00569405
653400 0.00569320
653742 0.00569252
654067 0.00569187
654202 0.00569160
654659 0.00569068
654944 0.00569011
655116 0.00568977
655173 0.00568965
655345 0.00568931
655631 0.00568874
655975 0.00568805
656205 0.00568759
656376 0.00568725
656917 0.00568617
657423 0.00568515
658026 0.00568395
658460 0.00568308
658860 0.00568228
659091 0.00568182
659322 0.00568136
659668 0.00568066
659784 0.00568043
660131 0.00567974
660420 0.00567916
660652 0.00567870
660941 0.00567812
661057 0.00567789
661231 0.00567754
661463 0.00567707
661695 0.00567661
661997 0.00567601
663279 0.00567344
663542 0.00567292
663892 0.00567222
664155 0.00567169
664858 0.00567028
665209 0.00566958
665559 0.00566888
665736 0.00566853
665917 0.00566817
666327 0.00566735
666620 0.00566676
666797 0.00566641
667031 0.00566594
667208 0.00566558
667973 0.00566405
668326 0.00566335
668503 0.00566299
668680 0.00566264
669034 0.00566193
669388 0.00566122
669565 0.00566087
670039 0.00565992
670512 0.00565898
670867 0.00565827
671223 0.00565755
671401 0.00565720
671816 0.00565637
671995 0.00565601
672233 0.00565553
672470 0.00565506
672946 0.00565411
673363 0.00565327
673542 0.00565292
673780 0.00565244
673960 0.00565208
674198 0.00565160
674437 0.00565113
674556 0.00565089
675095 0.00564981
675214 0.00564957
675694 0.00564861
675813 0.00564837
676653 0.00564669
676893 0.00564621
677554 0.00564489
677674 0.00564465
677915 0.00564417
678156 0.00564369
678337 0.00564333
678639 0.00564272
678880 0.00564224
679242 0.00564152
679846 0.00564031
680390 0.00563922
680753 0.00563849
681178 0.00563764
681785 0.00563643
682149 0.00563570
682547 0.00563491
683000 0.00563400
683822 0.00563236
684611 0.00563078
684981 0.00563004
685348 0.00562930
685531 0.00562894
685898 0.00562820
686389 0.00562722
686757 0.00562649
686880 0.00562624
687065 0.00562587
687249 0.00562550
687556 0.00562489
688884 0.00562223
689438 0.00562112
689663 0.00562067
689911 0.00562018
690163 0.00561967
690287 0.00561943
690906 0.00561819
691216 0.00561757
691340 0.00561732
691650 0.00561670
692022 0.00561596
692332 0.00561534
692519 0.00561496
692954 0.00561409
693328 0.00561334
693577 0.00561285
693639 0.00561272
693950 0.00561210
694325 0.00561135
694575 0.00561085
694949 0.00561010
695200 0.00560960
695450 0.00560910
695825 0.00560835
696095 0.00560781
696220 0.00560756
696314 0.00560737
696439 0.00560712
696662 0.00560668
696976 0.00560605
697416 0.00560517
697981 0.00560404
698233 0.00560353
698547 0.00560291
698736 0.00560253
698862 0.00560228
699051 0.00560190
699556 0.00560089
699935 0.00560013
700000 0.00560000
700567 0.00560136
701516 0.00560364
701707 0.00560410
701897 0.00560455
702087 0.00560501
702341 0.00560562
702722 0.00560653
703103 0.00560745
703230 0.00560775
703485 0.00560836
703803 0.00560913
703867 0.00560928
704249 0.00561020
704441 0.00561066
704759 0.00561142
705014 0.00561203
705270 0.00561265
705525 0.00561326
705717 0.00561372
705845 0.00561403
706102 0.00561465
706357 0.00561526
706485 0.00561556
706998 0.00561680
707191 0.00561726
707319 0.00561757
707639 0.00561833
707961 0.00561911
708282 0.00561988
708603 0.00562065
708797 0.00562111
709376 0.00562250
709570 0.00562297
710150 0.00562436
710537 0.00562529
710926 0.00562622
711055 0.00562653
711378 0.00562731
711637 0.00562793
711960 0.00562870
712479 0.00562995
712869 0.00563089
713454 0.00563229
713714 0.00563291
713980 0.00563355
714240 0.00563418
714566 0.00563496
714956 0.00563589
715283 0.00563668
715414 0.00563699
715739 0.00563777
715935 0.00563824
716540 0.00563970
717032 0.00564088
717720 0.00564253
718114 0.00564347
718704 0.00564489
719297 0.00564631
719790 0.00564750
720574 0.00564938
720838 0.00565001
721300 0.00565112
721697 0.00565207
723012 0.00565523
723411 0.00565619
723709 0.00565690
724706 0.00565930
725506 0.00566122
726106 0.00566266
726607 0.00566386
727309 0.00566554
728289 0.00566789
728557 0.00566854
728759 0.00566902
729094 0.00566983
729431 0.00567064
729632 0.00567112
729901 0.00567176
730035 0.00567208
730237 0.00567257
730507 0.00567322
730776 0.00567386
730978 0.00567435
731653 0.00567597
731855 0.00567645
732193 0.00567726
732599 0.00567824
732937 0.00567905
733140 0.00567954
733479 0.00568035
733615 0.00568068
733954 0.00568149
734224 0.00568214
734428 0.00568263
734836 0.00568361
735175 0.00568442
735720 0.00568573
736265 0.00568704
736810 0.00568834
737015 0.00568884
737424 0.00568982
737560 0.00569014
737902 0.00569097
738176 0.00569162
738518 0.00569244
738792 0.00569310
739134 0.00569392
739477 0.00569475
739614 0.00569507
739820 0.00569557
740233 0.00569656
740644 0.00569755
740988 0.00569837
741264 0.00569903
741471 0.00569953
741677 0.00570003
742159 0.00570118
742573 0.00570218
742925 0.00570302
743547 0.00570451
743962 0.00570551
744794 0.00570751
745209 0.00570850
745695 0.00570967
745834 0.00571000
745973 0.00571034
746460 0.00571150
746599 0.00571184
746947 0.00571267
747225 0.00571334
747434 0.00571384
747923 0.00571502
748132 0.00571552
748341 0.00571602
748830 0.00571719
749250 0.00571820
749530 0.00571887
749810 0.00571954
749950 0.00571988
750000 0.00572000
750000 0.00572000
750300 0.00572072
750511 0.00572123
750721 0.00572173
751002 0.00572241
751142 0.00572274
751564 0.00572375
751915 0.00572460
752056 0.00572494
752267 0.00572544
752548 0.00572612
752830 0.00572679
752971 0.00572713
753112 0.00572747
753323 0.00572798
753606 0.00572865
754241 0.00573018
754383 0.00573052
755639 0.00573353
756277 0.00573507
757662 0.00573839
759265 0.00574224
759479 0.00574275
759686 0.00574325
759865 0.00574368
760154 0.00574437
760655 0.00574557
761013 0.00574643
761370 0.00574729
761729 0.00574815
762159 0.00574918
762446 0.00574987
762662 0.00575039
762878 0.00575091
763380 0.00575211
763884 0.00575332
764317 0.00575436
764677 0.00575523
765037 0.00575609
765832 0.00575800
766194 0.00575887
766484 0.00575956
766991 0.00576078
767425 0.00576182
767933 0.00576304
768369 0.00576409
768586 0.00576461
769096 0.00576583
769460 0.00576670
769829 0.00576759
770663 0.00576959
771320 0.00577117
772088 0.00577301
772746 0.00577459
773516 0.00577644
773981 0.00577755
774208 0.00577810
774502 0.00577881
774943 0.00577986
775238 0.00578057
775827 0.00578199
776122 0.00578269
776565 0.00578376
776934 0.00578464
777229 0.00578535
777673 0.00578642
777896 0.00578695
778487 0.00578837
778635 0.00578872
779228 0.00579015
779451 0.00579068
780120 0.00579229
780566 0.00579336
780715 0.00579372
781161 0.00579479
781682 0.00579604
781831 0.00579639
782279 0.00579747
782876 0.00579890
783176 0.00579962
783475 0.00580034
783550 0.00580052
783849 0.00580124
784223 0.00580214
784598 0.00580304
784973 0.00580394
785198 0.00580448
785648 0.00580556
786025 0.00580646
786250 0.00580700
786475 0.00580754
787002 0.00580881
787379 0.00580971
788661 0.00581279
790024 0.00581606
790478 0.00581715
791085 0.00581860
791312 0.00581915
791540 0.00581970
791616 0.00581988
791844 0.00582043
791996 0.00582079
792224 0.00582134
792604 0.00582225
792909 0.00582298
793214 0.00582371
793366 0.00582408
793595 0.00582463
793747 0.00582499
794129 0.00582591
794587 0.00582701
795046 0.00582811
796424 0.00583142
796885 0.00583252
797268 0.00583344
797652 0.00583437
798267 0.00583584
798498 0.00583640
798805 0.00583713
799731 0.00583935
800000 0.00584000
800116 0.00583995
800657 0.00583974
800812 0.00583968
801044 0.00583958
801276 0.00583949
801508 0.00583940
802057 0.00583918
802755 0.00583890
803298 0.00583868
803764 0.00583849
804153 0.00583834
804464 0.00583821
805009 0.00583800
805243 0.00583790
805399 0.00583784
805867 0.00583765
806335 0.00583747
806882 0.00583725
807351 0.00583706
807586 0.00583697
808056 0.00583678
808291 0.00583668
808684 0.00583653
809076 0.00583637
809312 0.00583628
809704 0.00583612
809994 0.00583600
810292 0.00583588
810871 0.00583565
811579 0.00583537
812170 0.00583513
812533 0.00583499
812692 0.00583492
813087 0.00583477
813562 0.00583458
814036 0.00583439
814274 0.00583429
814512 0.00583420
814750 0.00583410
814909 0.00583404
815306 0.00583388
815704 0.00583372
816259 0.00583350
816498 0.00583340
817453 0.00583302
818172 0.00583273
818412 0.00583264
818811 0.00583248
819131 0.00583235
819291 0.00583228
819611 0.00583216
820011 0.00583200
820813 0.00583168
821455 0.00583142
821856 0.00583126
822499 0.00583100
822580 0.00583097
822983 0.00583081
823224 0.00583071
823466 0.00583061
823950 0.00583042
824434 0.00583023
824757 0.00583010
824919 0.00583003
825081 0.00582997
825242 0.00582990
825727 0.00582971
826052 0.00582958
826456 0.00582942
827024 0.00582919
827673 0.00582893
828323 0.00582867
828892 0.00582844
829219 0.00582831
829464 0.00582821
829789 0.00582808
830360 0.00582786
830850 0.00582766
831259 0.00582750
831586 0.00582737
832077 0.00582717
832404 0.00582704
832649 0.00582694
833060 0.00582678
833388 0.00582665
833635 0.00582655
833881 0.00582645
834867 0.00582605
835279 0.00582589
835443 0.00582582
835773 0.00582569
836102 0.00582556
836350 0.00582546
836763 0.00582530
837259 0.00582510
837507 0.00582500
837837 0.00582487
838110 0.00582476
838441 0.00582462
838607 0.00582456
838790 0.00582448
839252 0.00582430
839751 0.00582410
840165 0.00582393
840415 0.00582383
840581 0.00582377
840830 0.00582367
841246 0.00582350
842246 0.00582310
842534 0.00582299
843035 0.00582279
843285 0.00582269
844121 0.00582235
844456 0.00582222
844790 0.00582208
845294 0.00582188
845545 0.00582178
846384 0.00582145
847056 0.00582118
847477 0.00582101
848403 0.00582064
848981 0.00582041
849108 0.00582036
849319 0.00582027
849530 0.00582019
850245 0.00581990
851007 0.00581960
852194 0.00581912
852618 0.00581895
853043 0.00581878
853893 0.00581844
854234 0.00581831
854574 0.00581817
854830 0.00581807
855256 0.00581790
855769 0.00581769
856110 0.00581756
856709 0.00581732
857393 0.00581704
857736 0.00581691
857908 0.00581684
858337 0.00581667
858937 0.00581643
859109 0.00581636
859796 0.00581608
860571 0.00581577
861260 0.00581550
862468 0.00581501
862901 0.00581484
863940 0.00581442
864546 0.00581418
865414 0.00581383
865761 0.00581370
866572 0.00581337
866834 0.00581327
866921 0.00581323
867051 0.00581318
867138 0.00581315
867635 0.00581295
868071 0.00581277
868595 0.00581256
869644 0.00581214
870257 0.00581190
870958 0.00581162
871221 0.00581151
871660 0.00581134
872011 0.00581120
872274 0.00581109
872626 0.00581095
873066 0.00581077
873330 0.00581067
873857 0.00581046
874122 0.00581035
874484 0.00581021
875013 0.00581000
875278 0.00580989
875896 0.00580964
876250 0.00580950
876781 0.00580929
877047 0.00580918
877579 0.00580897
877845 0.00580886
878200 0.00580872
878466 0.00580861
879622 0.00580815
880334 0.00580787
881226 0.00580751
881315 0.00580747
881583 0.00580737
882120 0.00580715
882298 0.00580708
882655 0.00580694
883103 0.00580676
883477 0.00580661
884031 0.00580639
884300 0.00580628
884659 0.00580614
885108 0.00580596
885647 0.00580574
886277 0.00580549
887177 0.00580513
887809 0.00580488
888080 0.00580477
889254 0.00580430
889972 0.00580401
890199 0.00580392
890425 0.00580383
890742 0.00580370
891060 0.00580358
891151 0.00580354
891832 0.00580327
892469 0.00580301
892742 0.00580290
893379 0.00580265
893652 0.00580254
894108 0.00580236
894655 0.00580214
895751 0.00580170
896118 0.00580155
896484 0.00580141
896667 0.00580133
897217 0.00580111
897401 0.00580104
897859 0.00580086
898043 0.00580078
898409 0.00580064
898593 0.00580056
899605 0.00580016
900000 0.00580000
900527 0.00579895
901356 0.00579729
902004 0.00579599
902683 0.00579463
902821 0.00579436
902960 0.00579408
903423 0.00579315
903761 0.00579248
904410 0.00579118
904882 0.00579024
905346 0.00578931
905718 0.00578856
906649 0.00578670
907114 0.00578577
908047 0.00578391
908421 0.00578316
909449 0.00578110
910667 0.00577867
911416 0.00577717
911980 0.00577604
914428 0.00577114
915938 0.00576812
916412 0.00576718
916980 0.00576604
917453 0.00576509
918497 0.00576301
919162 0.00576168
919923 0.00576015
920018 0.00575996
920399 0.00575920
921066 0.00575787
922021 0.00575596
922690 0.00575462
923933 0.00575213
924221 0.00575156
924989 0.00575002
925181 0.00574964
925469 0.00574906
925661 0.00574868
926142 0.00574772
926622 0.00574676
927778 0.00574444
928067 0.00574387
928743 0.00574251
929709 0.00574058
930192 0.00573962
930677 0.00573865
931161 0.00573768
931840 0.00573632
933006 0.00573399
934465 0.00573107
935440 0.00572912
936124 0.00572775
937495 0.00572501
938474 0.00572305
939159 0.00572168
939651 0.00572070
940242 0.00571952
941029 0.00571794
941727 0.00571655
942417 0.00571517
942813 0.00571437
943899 0.00571220
944394 0.00571121
945088 0.00570982
945583 0.00570883
946477 0.00570705
947073 0.00570585
947869 0.00570426
948965 0.00570207
949663 0.00570067
950362 0.00569928
951163 0.00569767
951664 0.00569667
952165 0.00569567
952566 0.00569487
953469 0.00569306
953971 0.00569206
955279 0.00568944
956488 0.00568702
958004 0.00568399
958308 0.00568338
958611 0.00568278
959625 0.00568075
960132 0.00567974
961067 0.00567787
961270 0.00567746
961372 0.00567726
961979 0.00567604
962469 0.00567506
962775 0.00567445
963387 0.00567323
963693 0.00567261
964408 0.00567118
964920 0.00567016
965226 0.00566955
965942 0.00566812
966659 0.00566668
967069 0.00566586
967583 0.00566483
967788 0.00566442
968610 0.00566278
968816 0.00566237
969433 0.00566113
969742 0.00566052
970567 0.00565887
971083 0.00565783
972117 0.00565577
972633 0.00565473
972944 0.00565411
973669 0.00565266
973876 0.00565225
974084 0.00565183
974914 0.00565017
975225 0.00564955
976161 0.00564768
976890 0.00564622
977411 0.00564518
978642 0.00564272
979105 0.00564179
979475 0.00564105
980117 0.00563977
981478 0.00563704
982214 0.00563557
982739 0.00563452
983678 0.00563264
984046 0.00563191
984204 0.00563159
984901 0.00563020
985956 0.00562809
986695 0.00562661
987753 0.00562449
988283 0.00562343
988601 0.00562280
989451 0.00562110
990620 0.00561876
991151 0.00561770
992110 0.00561578
992857 0.00561429
993604 0.00561279
994353 0.00561129
994781 0.00561044
996066 0.00560787
996603 0.00560679
997569 0.00560486
997891 0.00560422
998107 0.00560379
998430 0.00560314
999292 0.00560142
999722 0.00560056
999938 0.00560012
1.00000E+06 0.00560000
1.00037E+06 0.00560135
1.00123E+06 0.00560448
1.00188E+06 0.00560685
1.00232E+06 0.00560846
1.00286E+06 0.00561042
1.00372E+06 0.00561356
1.00459E+06 0.00561673
1.00525E+06 0.00561913
1.00590E+06 0.00562150
1.00688E+06 0.00562507
1.00731E+06 0.00562664
1.00786E+06 0.00562865
1.00830E+06 0.00563025
1.00906E+06 0.00563302
1.01005E+06 0.00563663
1.01103E+06 0.00564020
1.01202E+06 0.00564381
1.01257E+06 0.00564581
1.01466E+06 0.00565343
1.01633E+06 0.00565951
1.01660E+06 0.00566050
1.01683E+06 0.00566134
1.01700E+06 0.00566196
1.01744E+06 0.00566356
1.01834E+06 0.00566684
1.01967E+06 0.00567169
1.02049E+06 0.00567467
1.02071E+06 0.00567548
1.02099E+06 0.00567650
1.02184E+06 0.00567959
1.02218E+06 0.00568083
1.02296E+06 0.00568368
1.02441E+06 0.00568896
1.02475E+06 0.00569020
1.02542E+06 0.00569264
1.02609E+06 0.00569508
1.02676E+06 0.00569752
1.02834E+06 0.00570328
1.02924E+06 0.00570656
1.03048E+06 0.00571108
1.03059E+06 0.00571148
1.03183E+06 0.00571600
1.03217E+06 0.00571724
1.03387E+06 0.00572344
1.03478E+06 0.00572675
1.03535E+06 0.00572883
1.03580E+06 0.00573047
1.03740E+06 0.00573630
1.03797E+06 0.00573838
1.03968E+06 0.00574461
1.04071E+06 0.00574836
1.04163E+06 0.00575172
1.04197E+06 0.00575296
1.04255E+06 0.00575507
1.04312E+06 0.00575715
1.04405E+06 0.00576054
1.04422E+06 0.00576116
1.04445E+06 0.00576199
1.04451E+06 0.00576221
1.04468E+06 0.00576283
1.04509E+06 0.00576433
1.04561E+06 0.00576622
1.04613E+06 0.00576812
1.04630E+06 0.00576874
1.04688E+06 0.00577085
1.04810E+06 0.00577530
1.04868E+06 0.00577741
1.05007E+06 0.00578248
1.05100E+06 0.00578586
1.05146E+06 0.00578754
1.05181E+06 0.00578882
1.05263E+06 0.00579180
1.05298E+06 0.00579308
1.05345E+06 0.00579479
1.05357E+06 0.00579523
1.05369E+06 0.00579567
1.05474E+06 0.00579949
1.05638E+06 0.00580547
1.05755E+06 0.00580974
1.05802E+06 0.00581145
1.05837E+06 0.00581272
1.05919E+06 0.00581571
1.05990E+06 0.00581830
1.06049E+06 0.00582045
1.06084E+06 0.00582173
1.06120E+06 0.00582304
1.06167E+06 0.00582475
1.06249E+06 0.00582774
1.06344E+06 0.00583120
1.06380E+06 0.00583251
1.06439E+06 0.00583466
1.06498E+06 0.00583681
1.06593E+06 0.00584028
1.06629E+06 0.00584159
1.06652E+06 0.00584243
1.06747E+06 0.00584589
1.06771E+06 0.00584676
1.06831E+06 0.00584895
1.06890E+06 0.00585110
1.06938E+06 0.00585285
1.07010E+06 0.00585547
1.07105E+06 0.00585893
1.07273E+06 0.00586506
1.07357E+06 0.00586812
1.07429E+06 0.00587074
1.07477E+06 0.00587249
1.07501E+06 0.00587337
1.07573E+06 0.00587599
1.07657E+06 0.00587905
1.07706E+06 0.00588084
1.07742E+06 0.00588215
1.07802E+06 0.00588434
1.07887E+06 0.00588743
1.07923E+06 0.00588875
1.07972E+06 0.00589053
1.08032E+06 0.00589272
1.08068E+06 0.00589403
1.08200E+06 0.00589884
1.08255E+06 0.00590084
1.08291E+06 0.00590216
1.08334E+06 0.00590372
1.08370E+06 0.00590504
1.08401E+06 0.00590617
1.08453E+06 0.00590806
1.08562E+06 0.00591203
1.08697E+06 0.00591695
1.08782E+06 0.00592005
1.08831E+06 0.00592184
1.08917E+06 0.00592497
1.08954E+06 0.00592632
1.08991E+06 0.00592767
1.09015E+06 0.00592854
1.09089E+06 0.00593124
1.09151E+06 0.00593350
1.09249E+06 0.00593707
1.09372E+06 0.00594155
1.09508E+06 0.00594651
1.09694E+06 0.00595329
1.09732E+06 0.00595467
1.09819E+06 0.00595784
1.09943E+06 0.00596236
1.10133E+06 0.00596929
1.10157E+06 0.00597016
1.10220E+06 0.00597246
1.10257E+06 0.00597381
1.10330E+06 0.00597647
1.10417E+06 0.00597964
1.10467E+06 0.00598146
1.10530E+06 0.00598375
1.10568E+06 0.00598514
1.10618E+06 0.00598696
1.10681E+06 0.00598926
1.10744E+06 0.00599155
1.10832E+06 0.00599476
1.10920E+06 0.00599797
1.10970E+06 0.00599979
1.11097E+06 0.00600442
1.11160E+06 0.00600671
1.11223E+06 0.00600901
1.11299E+06 0.00601178
1.11362E+06 0.00601408
1.11426E+06 0.00601641
1.11464E+06 0.00601779
1.11489E+06 0.00601870
1.11565E+06 0.00602147
1.11629E+06 0.00602381
1.11743E+06 0.00602796
1.11794E+06 0.00602982
1.11846E+06 0.00603171
1.11935E+06 0.00603496
1.11999E+06 0.00603729
1.12076E+06 0.00604010
1.12165E+06 0.00604334
1.12191E+06 0.00604429
1.12255E+06 0.00604662
1.12332E+06 0.00604943
1.12435E+06 0.00605318
1.12474E+06 0.00605460
1.12499E+06 0.00605551
1.12693E+06 0.00606258
1.12757E+06 0.00606492
1.12822E+06 0.00606728
1.12886E+06 0.00606962
1.12938E+06 0.00607151
1.13005E+06 0.00607395
1.13070E+06 0.00607632
1.13109E+06 0.00607774
1.13129E+06 0.00607847
1.13148E+06 0.00607916
1.13227E+06 0.00608204
1.13305E+06 0.00608489
1.13370E+06 0.00608726
1.13501E+06 0.00609203
1.13566E+06 0.00609440
1.13592E+06 0.00609535
1.13670E+06 0.00609819
1.13775E+06 0.00610202
1.13919E+06 0.00610726
1.13985E+06 0.00610967
1.14064E+06 0.00611255
1.14143E+06 0.00611543
1.14261E+06 0.00611973
1.14314E+06 0.00612166
1.14368E+06 0.00612363
1.14394E+06 0.00612457
1.14434E+06 0.00612603
1.14513E+06 0.00612891
1.14632E+06 0.00613325
1.14659E+06 0.00613423
1.14765E+06 0.00613809
1.14831E+06 0.00614050
1.14937E+06 0.00614436
1.15044E+06 0.00614826
1.15177E+06 0.00615311
1.15244E+06 0.00615555
1.15297E+06 0.00615748
1.15377E+06 0.00616040
1.15511E+06 0.00616528
1.15605E+06 0.00616871
1.15659E+06 0.00617068
1.15685E+06 0.00617162
1.15739E+06 0.00617359
1.15847E+06 0.00617753
1.15887E+06 0.00617898
1.15995E+06 0.00618292
1.16116E+06 0.00618733
1.16143E+06 0.00618831
1.16238E+06 0.00619178
1.16332E+06 0.00619520
1.16373E+06 0.00619670
1.16427E+06 0.00619866
1.16468E+06 0.00620016
1.16495E+06 0.00620114
1.16604E+06 0.00620511
1.16644E+06 0.00620657
1.16699E+06 0.00620858
1.16808E+06 0.00621255
1.16849E+06 0.00621404
1.17026E+06 0.00622049
1.17122E+06 0.00622399
1.17204E+06 0.00622698
1.17313E+06 0.00623095
1.17396E+06 0.00623398
1.17451E+06 0.00623598
1.17561E+06 0.00623999
1.17616E+06 0.00624200
1.17726E+06 0.00624600
1.17795E+06 0.00624852
1.17864E+06 0.00625103
1.17905E+06 0.00625253
1.18016E+06 0.00625657
1.18099E+06 0.00625960
1.18168E+06 0.00626211
1.18265E+06 0.00626565
1.18321E+06 0.00626769
1.18348E+06 0.00626867
1.18462E+06 0.00627283
1.18602E+06 0.00627793
1.18748E+06 0.00628325
1.18853E+06 0.00628708
1.18958E+06 0.00629090
1.19042E+06 0.00629396
1.19147E+06 0.00629779
1.19310E+06 0.00630373
1.19367E+06 0.00630581
1.19416E+06 0.00630759
1.19472E+06 0.00630964
1.19514E+06 0.00631117
1.19543E+06 0.00631222
1.19657E+06 0.00631638
1.19875E+06 0.00632432
1.20030E+06 0.00632997
1.20116E+06 0.00633311
1.20372E+06 0.00634244
1.20400E+06 0.00634346
1.20472E+06 0.00634608
1.20557E+06 0.00634918
1.20700E+06 0.00635439
1.20829E+06 0.00635909
1.20987E+06 0.00636485
1.21116E+06 0.00636955
1.21332E+06 0.00637742
1.21389E+06 0.00637950
1.21432E+06 0.00638107
1.21461E+06 0.00638212
1.21482E+06 0.00638289
1.21511E+06 0.00638394
1.21610E+06 0.00638755
1.21741E+06 0.00639233
1.21799E+06 0.00639444
1.21842E+06 0.00639601
1.21975E+06 0.00640085
1.22106E+06 0.00640563
1.22164E+06 0.00640774
1.22266E+06 0.00641146
1.22295E+06 0.00641252
1.22332E+06 0.00641387
1.22383E+06 0.00641572
1.22448E+06 0.00641809
1.22470E+06 0.00641889
1.22500E+06 0.00641999
1.22536E+06 0.00642130
1.22565E+06 0.00642236
1.22624E+06 0.00642451
1.22705E+06 0.00642746
1.22756E+06 0.00642932
1.22771E+06 0.00642986
1.22800E+06 0.00643092
1.22866E+06 0.00643333
1.22910E+06 0.00643493
1.22925E+06 0.00643548
1.22947E+06 0.00643628
1.22976E+06 0.00643734
1.22999E+06 0.00643817
1.23028E+06 0.00643923
1.23096E+06 0.00644171
1.23162E+06 0.00644411
1.23280E+06 0.00644841
1.23369E+06 0.00645166
1.23458E+06 0.00645490
1.23605E+06 0.00646026
1.23701E+06 0.00646376
1.23776E+06 0.00646649
1.23805E+06 0.00646755
1.23820E+06 0.00646809
1.23865E+06 0.00646973
1.23887E+06 0.00647054
1.23939E+06 0.00647243
1.23963E+06 0.00647331
1.24015E+06 0.00647520
1.24104E+06 0.00647844
1.24149E+06 0.00648008
1.24239E+06 0.00648336
1.24358E+06 0.00648770
1.24418E+06 0.00648989
1.24463E+06 0.00649153
1.24493E+06 0.00649262
1.24568E+06 0.00649535
1.24673E+06 0.00649918
1.24718E+06 0.00650082
1.24793E+06 0.00650355
1.24914E+06 0.00650796
1.25034E+06 0.00651234
1.25065E+06 0.00651347
1.25087E+06 0.00651427
1.25162E+06 0.00651700
1.25283E+06 0.00652141
1.25404E+06 0.00652582
1.25586E+06 0.00653245
1.25662E+06 0.00653522
1.25753E+06 0.00653854
1.25921E+06 0.00654466
1.25982E+06 0.00654689
1.26089E+06 0.00655078
1.26135E+06 0.00655246
1.26226E+06 0.00655578
1.26410E+06 0.00656248
1.26548E+06 0.00656751
1.26579E+06 0.00656864
1.26665E+06 0.00657178
1.26700E+06 0.00657305
1.26761E+06 0.00657528
1.26777E+06 0.00657586
1.26823E+06 0.00657753
1.26839E+06 0.00657812
1.26900E+06 0.00658034
1.26962E+06 0.00658260
1.27051E+06 0.00658584
1.27128E+06 0.00658865
1.27361E+06 0.00659714
1.27469E+06 0.00660108
1.27594E+06 0.00660563
1.27656E+06 0.00660789
1.27687E+06 0.00660902
1.27843E+06 0.00661471
1.27921E+06 0.00661755
1.27999E+06 0.00662039
1.28063E+06 0.00662273
1.28204E+06 0.00662786
1.28243E+06 0.00662929
1.28335E+06 0.00663264
1.28460E+06 0.00663719
1.28617E+06 0.00664292
1.28775E+06 0.00664867
1.28822E+06 0.00665039
1.28933E+06 0.00665443
1.28980E+06 0.00665614
1.29059E+06 0.00665902
1.29257E+06 0.00666624
1.29368E+06 0.00667028
1.29408E+06 0.00667174
1.29423E+06 0.00667229
1.29567E+06 0.00667754
1.29678E+06 0.00668158
1.29750E+06 0.00668421
1.29878E+06 0.00668887
1.29910E+06 0.00669004
1.29950E+06 0.00669149
1.30000E+06 0.00669332
1.30033E+06 0.00669452
1.30129E+06 0.00669802
1.30274E+06 0.00670330
1.30322E+06 0.00670505
1.30418E+06 0.00670855
1.30467E+06 0.00671034
1.30611E+06 0.00671558
1.30692E+06 0.00671854
1.30724E+06 0.00671970
1.30805E+06 0.00672265
1.30870E+06 0.00672502
1.31064E+06 0.00673209
1.31161E+06 0.00673563
1.31307E+06 0.00674095
1.31433E+06 0.00674554
1.31480E+06 0.00674725
1.31561E+06 0.00675021
1.31618E+06 0.00675228
1.31720E+06 0.00675600
1.31732E+06 0.00675612
1.31781E+06 0.00675660
1.31830E+06 0.00675708
1.31936E+06 0.00675811
1.31969E+06 0.00675844
1.32018E+06 0.00675891
1.32100E+06 0.00675972
1.32206E+06 0.00676075
1.32529E+06 0.00676391
1.32678E+06 0.00676537
1.32719E+06 0.00676577
1.32744E+06 0.00676601
1.32768E+06 0.00676625
1.32859E+06 0.00676714
1.32909E+06 0.00676763
1.32934E+06 0.00676787
1.33107E+06 0.00676956
1.33157E+06 0.00677005
1.33240E+06 0.00677086
1.33257E+06 0.00677103
1.33290E+06 0.00677135
1.33315E+06 0.00677160
1.33340E+06 0.00677184
1.33406E+06 0.00677249
1.33473E+06 0.00677314
1.33680E+06 0.00677516
1.33897E+06 0.00677729
1.33997E+06 0.00677826
1.34148E+06 0.00677974
1.34166E+06 0.00677992
1.34200E+06 0.00678025
1.34316E+06 0.00678138
1.34451E+06 0.00678270
1.34560E+06 0.00678377
1.34602E+06 0.00678418
1.34670E+06 0.00678484
1.34695E+06 0.00678509
1.34746E+06 0.00678559
1.34796E+06 0.00678608
1.34813E+06 0.00678624
1.34856E+06 0.00678666
1.34923E+06 0.00678732
1.34982E+06 0.00678790
1.35008E+06 0.00678815
1.35042E+06 0.00678848
1.35118E+06 0.00678923
1.35152E+06 0.00678956
1.35177E+06 0.00678980
1.35211E+06 0.00679013
1.35271E+06 0.00679072
1.35347E+06 0.00679146
1.35415E+06 0.00679213
1.35449E+06 0.00679246
1.35526E+06 0.00679321
1.35594E+06 0.00679388
1.35714E+06 0.00679505
1.35850E+06 0.00679638
1.36038E+06 0.00679822
1.36210E+06 0.00679990
1.36220E+06 0.00680000
1.36416E+06 0.00680000
1.36605E+06 0.00680000
1.36709E+06 0.00680000
1.36720E+06 0.00680000
1.36724E+06 0.00679383
1.36766E+06 0.00672530
1.36800E+06 0.00667008
1.36835E+06 0.00661324
1.36904E+06 0.00650118
1.36973E+06 0.00638913
1.37034E+06 0.00629006
1.37077E+06 0.00622023
1.37103E+06 0.00617801
1.37120E+06 0.00615040
1.37189E+06 0.00603834
1.37220E+06 0.00598800
1.37250E+06 0.00598083
1.37302E+06 0.00596839
1.37364E+06 0.00595357
1.37469E+06 0.00592846
1.37556E+06 0.00590766
1.37712E+06 0.00587036
1.37904E+06 0.00582445
1.37939E+06 0.00581608
1.37974E+06 0.00580771
1.38044E+06 0.00579097
1.38114E+06 0.00577424
1.38237E+06 0.00574482
1.38272E+06 0.00573646
1.38342E+06 0.00571972
1.38430E+06 0.00569868
1.38483E+06 0.00568600
1.38624E+06 0.00565229
1.38712E+06 0.00563125
1.38784E+06 0.00561403
1.38890E+06 0.00558868
1.39014E+06 0.00555904
1.39120E+06 0.00553369
1.39191E+06 0.00551671
1.39332E+06 0.00548300
1.39475E+06 0.00544880
1.39760E+06 0.00538066
1.40063E+06 0.00530821
1.40206E+06 0.00527401
1.40260E+06 0.00526110
1.40368E+06 0.00523528
1.40422E+06 0.00522237
1.40547E+06 0.00519248
1.40637E+06 0.00517096
1.40709E+06 0.00515374
1.40745E+06 0.00514513
1.40872E+06 0.00511477
1.40962E+06 0.00509325
1.41051E+06 0.00507197
1.41070E+06 0.00506742
1.41106E+06 0.00505881
1.41251E+06 0.00502414
1.41342E+06 0.00500238
1.41433E+06 0.00498063
1.41542E+06 0.00495456
1.41705E+06 0.00491559
1.41720E+06 0.00491200
1.41887E+06 0.00490704
1.41997E+06 0.00490377
1.42180E+06 0.00489833
1.42235E+06 0.00489670
1.42271E+06 0.00489563
1.42320E+06 0.00489417
1.42436E+06 0.00489072
1.42509E+06 0.00488855
1.42610E+06 0.00488555
1.42629E+06 0.00488499
1.42721E+06 0.00488225
1.42822E+06 0.00487925
1.42891E+06 0.00487720
1.43020E+06 0.00487337
1.43093E+06 0.00487120
1.43223E+06 0.00486733
1.43482E+06 0.00485964
1.43519E+06 0.00485854
1.43649E+06 0.00485467
1.43686E+06 0.00485357
1.43910E+06 0.00484692
1.44022E+06 0.00484359
1.44134E+06 0.00484026
1.44171E+06 0.00483916
1.44264E+06 0.00483640
1.44339E+06 0.00483417
1.44396E+06 0.00483247
1.44696E+06 0.00482356
1.44902E+06 0.00481744
1.44940E+06 0.00481631
1.45053E+06 0.00481295
1.45147E+06 0.00481015
1.45185E+06 0.00480903
1.45281E+06 0.00480617
1.45357E+06 0.00480391
1.45508E+06 0.00479943
1.45660E+06 0.00479491
1.45808E+06 0.00479051
1.45853E+06 0.00478917
1.46015E+06 0.00478436
1.46072E+06 0.00478267
1.46139E+06 0.00478067
1.46305E+06 0.00477574
1.46554E+06 0.00476834
1.46630E+06 0.00476608
1.46688E+06 0.00476436
1.46803E+06 0.00476094
1.46899E+06 0.00475809
1.47226E+06 0.00474837
1.47265E+06 0.00474721
1.47419E+06 0.00474263
1.47593E+06 0.00473746
1.47709E+06 0.00473402
1.47864E+06 0.00472941
1.47981E+06 0.00472593
1.48136E+06 0.00472133
1.48195E+06 0.00471957
1.48292E+06 0.00471669
1.48351E+06 0.00471494
1.48507E+06 0.00471030
1.48683E+06 0.00470507
1.48878E+06 0.00469927
1.48937E+06 0.00469752
1.49134E+06 0.00469167
1.49271E+06 0.00468760
1.49350E+06 0.00468525
1.49449E+06 0.00468231
1.49626E+06 0.00467705
1.49705E+06 0.00467470
1.49883E+06 0.00466941
1.49923E+06 0.00466822
1.49964E+06 0.00466700
1.50000E+06 0.00466593
1.50103E+06 0.00466287
1.50153E+06 0.00466138
1.50203E+06 0.00465990
1.50252E+06 0.00465844
1.50322E+06 0.00465636
1.50382E+06 0.00465458
1.50649E+06 0.00464664
1.50709E+06 0.00464486
1.50869E+06 0.00464011
1.50989E+06 0.00463654
1.51170E+06 0.00463116
1.51471E+06 0.00462221
1.51571E+06 0.00461924
1.51652E+06 0.00461684
1.51773E+06 0.00461324
1.51835E+06 0.00461140
1.52017E+06 0.00460599
1.52139E+06 0.00460236
1.52463E+06 0.00459273
1.52646E+06 0.00458730
1.52789E+06 0.00458305
1.52932E+06 0.00457880
1.52973E+06 0.00457758
1.53054E+06 0.00457517
1.53116E+06 0.00457333
1.53177E+06 0.00457151
1.53259E+06 0.00456908
1.53361E+06 0.00456605
1.53423E+06 0.00456420
1.53484E+06 0.00456239
1.53587E+06 0.00455933
1.53690E+06 0.00455627
1.53813E+06 0.00455261
1.53896E+06 0.00455015
1.54081E+06 0.00454465
1.54164E+06 0.00454218
1.54350E+06 0.00453665
1.54633E+06 0.00452824
1.54716E+06 0.00452578
1.54788E+06 0.00452364
1.54851E+06 0.00452177
1.54903E+06 0.00452022
1.55038E+06 0.00451621
1.55059E+06 0.00451558
1.55132E+06 0.00451341
1.55262E+06 0.00450955
1.55471E+06 0.00450334
1.55534E+06 0.00450147
1.55660E+06 0.00449772
1.55722E+06 0.00449588
1.55806E+06 0.00449338
1.55953E+06 0.00448902
1.56122E+06 0.00448399
1.56185E+06 0.00448212
1.56311E+06 0.00447838
1.56396E+06 0.00447585
1.56544E+06 0.00447145
1.56607E+06 0.00446958
1.56713E+06 0.00446643
1.56819E+06 0.00446328
1.57095E+06 0.00445508
1.57244E+06 0.00445065
1.57329E+06 0.00444812
1.57371E+06 0.00444687
1.57521E+06 0.00444242
1.57627E+06 0.00443927
1.57734E+06 0.00443609
1.57798E+06 0.00443418
1.57905E+06 0.00443100
1.57991E+06 0.00442845
1.58141E+06 0.00442399
1.58291E+06 0.00441953
1.58463E+06 0.00441442
1.58567E+06 0.00441133
1.58630E+06 0.00440946
1.58684E+06 0.00440785
1.58722E+06 0.00440672
1.58758E+06 0.00440565
1.58952E+06 0.00439989
1.59060E+06 0.00439668
1.59170E+06 0.00439341
1.59279E+06 0.00439017
1.59366E+06 0.00438759
1.59474E+06 0.00438438
1.59561E+06 0.00438179
1.59692E+06 0.00437790
1.59779E+06 0.00437531
1.59888E+06 0.00437207
1.60107E+06 0.00436556
1.60194E+06 0.00436298
1.60325E+06 0.00435909
1.60457E+06 0.00435516
1.60545E+06 0.00435255
1.60611E+06 0.00435059
1.60776E+06 0.00434568
1.60812E+06 0.00434461
1.60900E+06 0.00434200
1.60988E+06 0.00433938
1.61055E+06 0.00433739
1.61099E+06 0.00433608
1.61154E+06 0.00433445
1.61187E+06 0.00433347
1.61298E+06 0.00433017
1.61342E+06 0.00432886
1.61521E+06 0.00432354
1.61698E+06 0.00431828
1.61765E+06 0.00431629
1.61898E+06 0.00431234
1.62054E+06 0.00430770
1.62143E+06 0.00430506
1.62210E+06 0.00430307
1.62254E+06 0.00430176
1.62433E+06 0.00429644
1.62540E+06 0.00429326
1.62593E+06 0.00429168
1.62627E+06 0.00429067
1.62683E+06 0.00428901
1.62772E+06 0.00428636
1.62817E+06 0.00428503
1.62862E+06 0.00428369
1.62896E+06 0.00428268
1.62963E+06 0.00428069
1.63162E+06 0.00427477
1.63568E+06 0.00426271
1.63749E+06 0.00425733
1.63907E+06 0.00425263
1.63975E+06 0.00425061
1.64088E+06 0.00424725
1.64157E+06 0.00424520
1.64202E+06 0.00424387
1.64270E+06 0.00424185
1.64338E+06 0.00423983
1.64384E+06 0.00423846
1.64429E+06 0.00423712
1.64611E+06 0.00423171
1.64726E+06 0.00422829
1.64840E+06 0.00422491
1.64886E+06 0.00422354
1.65160E+06 0.00421540
1.65297E+06 0.00421133
1.65389E+06 0.00420859
1.65550E+06 0.00420381
1.65665E+06 0.00420039
1.65965E+06 0.00419147
1.66057E+06 0.00418874
1.66126E+06 0.00418669
1.66219E+06 0.00418392
1.66358E+06 0.00417979
1.66406E+06 0.00417837
1.66708E+06 0.00416939
1.66801E+06 0.00416663
1.66987E+06 0.00416110
1.67127E+06 0.00415694
1.67197E+06 0.00415486
1.67430E+06 0.00414794
1.67571E+06 0.00414374
1.67782E+06 0.00413747
1.67876E+06 0.00413468
1.67993E+06 0.00413120
1.68111E+06 0.00412770
1.68205E+06 0.00412490
1.68417E+06 0.00411860
1.68559E+06 0.00411438
1.68748E+06 0.00410877
1.68795E+06 0.00410737
1.69151E+06 0.00409679
1.69341E+06 0.00409114
1.69483E+06 0.00408692
1.69650E+06 0.00408196
1.69722E+06 0.00407982
1.69865E+06 0.00407557
1.69961E+06 0.00407272
1.70000E+06 0.00407156
1.70200E+06 0.00406561
1.70344E+06 0.00406134
1.70392E+06 0.00405991
1.70512E+06 0.00405634
1.70584E+06 0.00405420
1.70777E+06 0.00404847
1.70970E+06 0.00404273
1.71066E+06 0.00403988
1.71115E+06 0.00403842
1.71236E+06 0.00403483
1.71356E+06 0.00403126
1.71429E+06 0.00402909
1.71502E+06 0.00402692
1.71672E+06 0.00402187
1.71818E+06 0.00401753
1.72110E+06 0.00400885
1.72183E+06 0.00400668
1.72232E+06 0.00400523
1.72354E+06 0.00400160
1.72549E+06 0.00399581
1.72696E+06 0.00399144
1.72868E+06 0.00398633
1.73064E+06 0.00398050
1.73138E+06 0.00397830
1.73236E+06 0.00397539
1.73310E+06 0.00397319
1.73705E+06 0.00396145
1.73952E+06 0.00395411
1.74125E+06 0.00394897
1.74349E+06 0.00394231
1.74523E+06 0.00393714
1.74748E+06 0.00393045
1.74922E+06 0.00392528
1.75000E+06 0.00392297
1.75197E+06 0.00391711
1.75322E+06 0.00391340
1.75548E+06 0.00390668
1.75649E+06 0.00390368
1.75726E+06 0.00390139
1.75927E+06 0.00389542
1.76028E+06 0.00389241
1.76281E+06 0.00388490
1.76483E+06 0.00387889
1.76914E+06 0.00386608
1.77245E+06 0.00385625
1.77449E+06 0.00385018
1.77653E+06 0.00384412
1.77730E+06 0.00384183
1.77934E+06 0.00383577
1.78165E+06 0.00382891
1.78294E+06 0.00382507
1.78371E+06 0.00382278
1.78551E+06 0.00381743
1.78783E+06 0.00381054
1.78886E+06 0.00380748
1.79352E+06 0.00379363
1.79534E+06 0.00378822
1.79638E+06 0.00378513
1.79820E+06 0.00377972
1.79950E+06 0.00377586
1.80028E+06 0.00377354
1.80132E+06 0.00377045
1.80315E+06 0.00376501
1.80577E+06 0.00375722
1.80708E+06 0.00375333
1.80892E+06 0.00374786
1.81076E+06 0.00374240
1.81155E+06 0.00374005
1.81260E+06 0.00373693
1.81471E+06 0.00373066
1.81735E+06 0.00372281
1.81841E+06 0.00371966
1.81947E+06 0.00371651
1.82159E+06 0.00371021
1.82291E+06 0.00370629
1.82504E+06 0.00369996
1.82558E+06 0.00369835
1.82771E+06 0.00369202
1.82931E+06 0.00368727
1.83038E+06 0.00368409
1.83547E+06 0.00366896
1.83735E+06 0.00366337
1.83816E+06 0.00366097
1.83869E+06 0.00365939
1.84031E+06 0.00365458
1.84139E+06 0.00365137
1.84328E+06 0.00364575
1.84409E+06 0.00364334
1.84544E+06 0.00363933
1.84598E+06 0.00363773
1.84679E+06 0.00363532
1.84788E+06 0.00363208
1.84896E+06 0.00362887
1.85032E+06 0.00362483
1.85250E+06 0.00361835
1.85359E+06 0.00361511
1.85495E+06 0.00361107
1.85659E+06 0.00360619
1.85768E+06 0.00360296
1.85959E+06 0.00359728
1.86014E+06 0.00359564
1.86096E+06 0.00359321
1.86233E+06 0.00358914
1.86386E+06 0.00358459
1.86661E+06 0.00357642
1.86771E+06 0.00357315
1.87020E+06 0.00356575
1.87130E+06 0.00356248
1.87324E+06 0.00355671
1.87407E+06 0.00355425
1.87629E+06 0.00354765
1.87712E+06 0.00354518
1.87767E+06 0.00354355
1.87962E+06 0.00353775
1.88045E+06 0.00353529
1.88296E+06 0.00352783
1.88548E+06 0.00352034
1.88603E+06 0.00351870
1.88855E+06 0.00351121
1.88940E+06 0.00350869
1.89079E+06 0.00350456
1.89276E+06 0.00349870
1.89614E+06 0.00348866
1.89811E+06 0.00348280
1.89953E+06 0.00347858
1.90000E+06 0.00347719
1.90179E+06 0.00347187
1.90292E+06 0.00346851
1.90406E+06 0.00346512
1.90519E+06 0.00346176
1.90832E+06 0.00345246
1.90946E+06 0.00344907
1.91117E+06 0.00344399
1.91231E+06 0.00344060
1.91374E+06 0.00343635
1.91488E+06 0.00343297
1.91602E+06 0.00342958
1.91775E+06 0.00342444
1.91861E+06 0.00342188
1.92292E+06 0.00340907
1.92436E+06 0.00340479
1.92580E+06 0.00340051
1.92753E+06 0.00339537
1.92956E+06 0.00338934
1.93187E+06 0.00338247
1.93245E+06 0.00338075
1.93390E+06 0.00337644
1.93535E+06 0.00337213
1.93623E+06 0.00336952
1.93885E+06 0.00336173
1.94002E+06 0.00335825
1.94147E+06 0.00335394
1.94206E+06 0.00335219
1.94352E+06 0.00334785
1.94469E+06 0.00334437
1.94674E+06 0.00333828
1.94909E+06 0.00333130
1.94997E+06 0.00332868
1.95144E+06 0.00332431
1.95262E+06 0.00332081
1.95380E+06 0.00331730
1.95793E+06 0.00330503
1.96178E+06 0.00329358
1.96445E+06 0.00328565
1.96624E+06 0.00328033
1.96803E+06 0.00327501
1.96833E+06 0.00327412
1.96922E+06 0.00327147
1.97161E+06 0.00326437
1.97340E+06 0.00325905
1.97460E+06 0.00325549
1.97610E+06 0.00325103
1.97760E+06 0.00324657
1.98060E+06 0.00323765
1.98302E+06 0.00323046
1.98452E+06 0.00322600
1.98603E+06 0.00322152
1.98755E+06 0.00321700
1.98967E+06 0.00321070
1.99300E+06 0.00320080
1.99452E+06 0.00319629
1.99604E+06 0.00319177
1.99787E+06 0.00318633
1.99940E+06 0.00318178
2.00000E+06 0.00318000
2.00000E+06 0.00318000
2.00062E+06 0.00318032
2.00215E+06 0.00318110
2.00429E+06 0.00318219
2.00613E+06 0.00318313
2.00705E+06 0.00318360
2.00858E+06 0.00318438
2.00951E+06 0.00318485
2.01054E+06 0.00318538
2.01259E+06 0.00318642
2.01435E+06 0.00318732
2.01581E+06 0.00318806
2.01905E+06 0.00318972
2.02022E+06 0.00319031
2.02259E+06 0.00319152
2.02436E+06 0.00319242
2.02731E+06 0.00319393
2.02850E+06 0.00319454
2.02998E+06 0.00319529
2.03266E+06 0.00319666
2.03385E+06 0.00319726
2.03534E+06 0.00319802
2.03623E+06 0.00319848
2.03712E+06 0.00319893
2.03862E+06 0.00319970
2.04101E+06 0.00320092
2.04191E+06 0.00320137
2.04370E+06 0.00320229
2.04851E+06 0.00320474
2.05001E+06 0.00320551
2.05062E+06 0.00320582
2.05242E+06 0.00320673
2.05363E+06 0.00320735
2.05514E+06 0.00320812
2.05786E+06 0.00320951
2.06120E+06 0.00321121
2.06211E+06 0.00321168
2.06393E+06 0.00321260
2.06820E+06 0.00321478
2.07064E+06 0.00321603
2.07187E+06 0.00321665
2.07463E+06 0.00321806
2.07585E+06 0.00321868
2.07830E+06 0.00321993
2.07923E+06 0.00322041
2.08015E+06 0.00322088
2.08200E+06 0.00322182
2.08324E+06 0.00322245
2.08540E+06 0.00322355
2.08663E+06 0.00322418
2.08880E+06 0.00322529
2.09035E+06 0.00322608
2.09345E+06 0.00322766
2.09470E+06 0.00322830
2.09594E+06 0.00322893
2.09719E+06 0.00322957
2.09937E+06 0.00323068
2.10031E+06 0.00323116
2.10375E+06 0.00323291
2.10531E+06 0.00323371
2.10751E+06 0.00323483
2.10876E+06 0.00323547
2.10970E+06 0.00323595
2.11160E+06 0.00323692
2.11412E+06 0.00323820
2.11696E+06 0.00323965
2.12107E+06 0.00324175
2.12361E+06 0.00324304
2.12934E+06 0.00324596
2.13157E+06 0.00324710
2.13445E+06 0.00324857
2.13637E+06 0.00324955
2.13736E+06 0.00325005
2.14154E+06 0.00325219
2.14411E+06 0.00325350
2.14604E+06 0.00325448
2.14668E+06 0.00325481
2.14895E+06 0.00325597
2.15024E+06 0.00325662
2.15186E+06 0.00325745
2.15413E+06 0.00325861
2.15803E+06 0.00326060
2.16063E+06 0.00326192
2.16357E+06 0.00326342
2.16717E+06 0.00326526
2.17044E+06 0.00326692
2.17702E+06 0.00327028
2.17867E+06 0.00327112
2.17999E+06 0.00327180
2.18164E+06 0.00327264
2.18395E+06 0.00327382
2.18528E+06 0.00327449
2.18694E+06 0.00327534
2.18893E+06 0.00327635
2.19059E+06 0.00327720
2.19293E+06 0.00327839
2.19493E+06 0.00327941
2.19660E+06 0.00328027
2.19927E+06 0.00328163
2.20195E+06 0.00328300
2.20329E+06 0.00328368
2.20598E+06 0.00328505
2.21036E+06 0.00328728
2.21137E+06 0.00328780
2.21238E+06 0.00328831
2.21407E+06 0.00328918
2.21644E+06 0.00329038
2.21983E+06 0.00329211
2.22289E+06 0.00329367
2.22527E+06 0.00329489
2.22800E+06 0.00329628
2.23175E+06 0.00329819
2.23346E+06 0.00329907
2.23655E+06 0.00330064
2.23965E+06 0.00330222
2.24205E+06 0.00330345
2.24343E+06 0.00330415
2.24516E+06 0.00330503
2.24723E+06 0.00330609
2.25000E+06 0.00330750
2.25035E+06 0.00330768
2.25346E+06 0.00330927
2.25555E+06 0.00331033
2.25729E+06 0.00331122
2.26112E+06 0.00331317
2.26426E+06 0.00331477
2.26671E+06 0.00331602
2.26847E+06 0.00331692
2.27201E+06 0.00331873
2.27870E+06 0.00332214
2.28224E+06 0.00332394
2.28365E+06 0.00332466
2.28755E+06 0.00332665
2.28933E+06 0.00332756
2.29039E+06 0.00332810
2.29146E+06 0.00332865
2.29395E+06 0.00332992
2.29609E+06 0.00333101
2.29788E+06 0.00333192
2.29967E+06 0.00333283
2.30074E+06 0.00333338
2.30182E+06 0.00333393
2.30397E+06 0.00333503
2.30613E+06 0.00333613
2.30828E+06 0.00333722
2.31044E+06 0.00333832
2.31153E+06 0.00333888
2.31224E+06 0.00333924
2.31290E+06 0.00333958
2.31293E+06 0.00333959
2.31477E+06 0.00334053
2.31622E+06 0.00334127
2.31948E+06 0.00334294
2.32129E+06 0.00334386
2.32383E+06 0.00334515
2.32492E+06 0.00334571
2.32711E+06 0.00334683
2.33186E+06 0.00334925
2.33441E+06 0.00335055
2.33698E+06 0.00335186
2.33881E+06 0.00335279
2.34322E+06 0.00335504
2.34543E+06 0.00335617
2.34765E+06 0.00335730
2.34949E+06 0.00335824
2.35356E+06 0.00336032
2.35505E+06 0.00336108
2.35801E+06 0.00336259
2.36546E+06 0.00336639
2.36883E+06 0.00336810
2.37295E+06 0.00337021
2.37558E+06 0.00337155
2.37858E+06 0.00337308
2.37972E+06 0.00337366
2.38311E+06 0.00337539
2.38576E+06 0.00337674
2.39068E+06 0.00337925
2.39334E+06 0.00338060
2.39486E+06 0.00338138
2.39600E+06 0.00338196
2.39790E+06 0.00338293
2.39981E+06 0.00338390
2.40057E+06 0.00338429
2.40248E+06 0.00338527
2.40554E+06 0.00338683
2.40938E+06 0.00338878
2.41245E+06 0.00339035
2.41476E+06 0.00339153
2.41785E+06 0.00339310
2.42016E+06 0.00339428
2.42171E+06 0.00339507
2.42291E+06 0.00339568
2.42639E+06 0.00339746
2.42911E+06 0.00339885
2.43261E+06 0.00340063
2.43729E+06 0.00340302
2.43924E+06 0.00340401
2.44159E+06 0.00340521
2.44394E+06 0.00340641
2.44551E+06 0.00340721
2.44748E+06 0.00340822
2.44945E+06 0.00340922
2.45141E+06 0.00341022
2.45456E+06 0.00341183
2.45615E+06 0.00341264
2.45812E+06 0.00341364
2.45970E+06 0.00341445
2.46129E+06 0.00341526
2.46446E+06 0.00341688
2.46803E+06 0.00341870
2.47162E+06 0.00342053
2.47362E+06 0.00342155
2.47681E+06 0.00342317
2.47842E+06 0.00342399
2.48050E+06 0.00342506
2.48053E+06 0.00342507
2.48082E+06 0.00342522
2.48403E+06 0.00342686
2.48604E+06 0.00342788
2.48926E+06 0.00342952
2.49290E+06 0.00343138
2.49370E+06 0.00343179
2.49613E+06 0.00343303
2.49735E+06 0.00343365
2.50000E+06 0.00343500
2.50140E+06 0.00343571
2.50384E+06 0.00343696
2.50546E+06 0.00343779
2.50873E+06 0.00343945
2.50995E+06 0.00344008
2.51322E+06 0.00344174
2.51649E+06 0.00344341
2.51813E+06 0.00344425
2.51936E+06 0.00344487
2.52142E+06 0.00344592
2.52265E+06 0.00344655
2.52471E+06 0.00344760
2.52635E+06 0.00344844
2.52801E+06 0.00344929
2.53007E+06 0.00345034
2.53172E+06 0.00345118
2.53420E+06 0.00345244
2.53657E+06 0.00345365
2.54155E+06 0.00345619
2.54530E+06 0.00345810
2.54780E+06 0.00345938
2.55471E+06 0.00346290
2.55785E+06 0.00346450
2.56038E+06 0.00346579
2.56416E+06 0.00346772
2.56796E+06 0.00346966
2.57304E+06 0.00347225
2.57748E+06 0.00347452
2.58030E+06 0.00347595
2.58158E+06 0.00347661
2.58457E+06 0.00347813
2.58670E+06 0.00347922
2.58755E+06 0.00347965
2.58969E+06 0.00348074
2.59312E+06 0.00348249
2.59530E+06 0.00348360
2.59917E+06 0.00348558
2.60347E+06 0.00348777
2.60649E+06 0.00348931
2.61082E+06 0.00349152
2.61212E+06 0.00349218
2.61343E+06 0.00349285
2.61646E+06 0.00349440
2.62037E+06 0.00349639
2.62648E+06 0.00349951
2.62954E+06 0.00350107
2.63304E+06 0.00350285
2.63524E+06 0.00350397
2.64008E+06 0.00350644
2.64802E+06 0.00351049
2.64910E+06 0.00351104
2.64915E+06 0.00351107
2.64979E+06 0.00351139
2.65378E+06 0.00351343
2.65511E+06 0.00351411
2.65600E+06 0.00351456
2.65733E+06 0.00351524
2.66000E+06 0.00351660
2.66133E+06 0.00351728
2.66357E+06 0.00351842
2.66670E+06 0.00352002
2.66849E+06 0.00352093
2.67162E+06 0.00352253
2.67431E+06 0.00352390
2.67521E+06 0.00352436
2.67791E+06 0.00352573
2.68016E+06 0.00352688
2.68376E+06 0.00352872
2.68738E+06 0.00353056
2.68873E+06 0.00353125
2.69100E+06 0.00353241
2.69372E+06 0.00353380
2.69599E+06 0.00353496
2.69872E+06 0.00353635
2.70055E+06 0.00353728
2.70191E+06 0.00353797
2.70328E+06 0.00353867
2.70556E+06 0.00353984
2.70830E+06 0.00354123
2.71104E+06 0.00354263
2.71448E+06 0.00354439
2.71930E+06 0.00354684
2.72553E+06 0.00355002
2.72969E+06 0.00355214
2.73317E+06 0.00355392
2.73665E+06 0.00355569
2.74154E+06 0.00355819
2.74503E+06 0.00355997
2.74713E+06 0.00356104
2.75000E+06 0.00356250
2.75064E+06 0.00356283
2.75416E+06 0.00356462
2.75698E+06 0.00356606
2.75980E+06 0.00356750
2.76121E+06 0.00356822
2.76546E+06 0.00357039
2.77183E+06 0.00357363
2.77611E+06 0.00357582
2.78039E+06 0.00357800
2.78611E+06 0.00358092
2.79185E+06 0.00358384
2.79616E+06 0.00358604
2.79977E+06 0.00358788
2.80266E+06 0.00358936
2.80989E+06 0.00359304
2.81642E+06 0.00359637
2.82087E+06 0.00359864
2.82818E+06 0.00360237
2.83406E+06 0.00360537
2.83920E+06 0.00360799
2.84364E+06 0.00361026
2.84806E+06 0.00361251
2.84955E+06 0.00361327
2.85474E+06 0.00361592
2.85771E+06 0.00361743
2.86069E+06 0.00361895
2.86516E+06 0.00362123
2.86890E+06 0.00362314
2.87265E+06 0.00362505
2.87864E+06 0.00362811
2.88392E+06 0.00363080
2.88770E+06 0.00363273
2.89526E+06 0.00363658
2.90212E+06 0.00364008
2.91203E+06 0.00364514
2.91587E+06 0.00364709
2.92047E+06 0.00364944
2.92586E+06 0.00365219
2.93203E+06 0.00365534
2.93668E+06 0.00365771
2.93978E+06 0.00365929
2.94289E+06 0.00366087
2.94912E+06 0.00366405
2.95458E+06 0.00366684
2.96164E+06 0.00367044
2.96713E+06 0.00367324
2.97186E+06 0.00367565
2.97423E+06 0.00367686
2.97898E+06 0.00367928
2.98294E+06 0.00368130
2.98612E+06 0.00368292
2.98850E+06 0.00368414
2.99170E+06 0.00368577
2.99728E+06 0.00368861
3.00000E+06 0.00369000
3.00770E+06 0.00368099
3.01010E+06 0.00367818
3.01414E+06 0.00367346
3.01897E+06 0.00366781
3.02302E+06 0.00366307
3.02829E+06 0.00365690
3.03533E+06 0.00364866
3.04294E+06 0.00363976
3.04513E+06 0.00363720
3.04731E+06 0.00363465
3.04895E+06 0.00363273
3.05004E+06 0.00363145
3.05442E+06 0.00362633
3.05716E+06 0.00362312
3.05937E+06 0.00362054
3.06156E+06 0.00361798
3.06542E+06 0.00361346
3.07309E+06 0.00360449
3.08223E+06 0.00359379
3.08974E+06 0.00358500
3.09309E+06 0.00358109
3.09729E+06 0.00357617
3.10402E+06 0.00356830
3.10993E+06 0.00356138
3.11330E+06 0.00355744
3.11507E+06 0.00355537
3.12951E+06 0.00353847
3.13635E+06 0.00353047
3.14064E+06 0.00352545
3.15182E+06 0.00351237
3.16217E+06 0.00350026
3.16999E+06 0.00349111
3.18045E+06 0.00347887
3.18482E+06 0.00347376
3.18920E+06 0.00346864
3.19359E+06 0.00346350
3.19976E+06 0.00345628
3.21302E+06 0.00344077
3.22280E+06 0.00342932
3.22726E+06 0.00342411
3.23711E+06 0.00341258
3.24340E+06 0.00340522
3.25152E+06 0.00339572
3.26784E+06 0.00337663
3.27512E+06 0.00336811
3.27787E+06 0.00336489
3.28886E+06 0.00335203
3.30084E+06 0.00333802
3.30732E+06 0.00333044
3.31195E+06 0.00332502
3.31753E+06 0.00331849
3.32218E+06 0.00331305
3.32405E+06 0.00331086
3.33155E+06 0.00330209
3.33623E+06 0.00329661
3.33904E+06 0.00329332
3.34187E+06 0.00329001
3.34847E+06 0.00328229
3.35414E+06 0.00327566
3.35887E+06 0.00327012
3.36362E+06 0.00326457
3.36647E+06 0.00326123
3.38366E+06 0.00324112
3.38847E+06 0.00323549
3.39810E+06 0.00322422
3.40390E+06 0.00321744
3.41359E+06 0.00320610
3.41942E+06 0.00319928
3.42137E+06 0.00319700
3.42577E+06 0.00319185
3.43189E+06 0.00318469
3.44826E+06 0.00316554
3.45651E+06 0.00315588
3.47308E+06 0.00313650
3.48140E+06 0.00312676
3.48307E+06 0.00312481
3.49310E+06 0.00311307
3.50000E+06 0.00310500
3.52178E+06 0.00307952
3.52857E+06 0.00307157
3.54737E+06 0.00304958
3.55596E+06 0.00303953
3.56647E+06 0.00302723
3.58558E+06 0.00300487
3.59781E+06 0.00299056
3.61365E+06 0.00297203
3.63848E+06 0.00294298
3.64742E+06 0.00293252
3.67259E+06 0.00290307
3.68345E+06 0.00289036
3.69437E+06 0.00287759
3.70167E+06 0.00286905
3.71818E+06 0.00284973
3.73480E+06 0.00283028
3.75341E+06 0.00280851
3.75902E+06 0.00280195
3.77406E+06 0.00278435
3.79675E+06 0.00275780
3.83120E+06 0.00271750
3.83891E+06 0.00270848
3.85441E+06 0.00269034
3.86609E+06 0.00267668
3.87980E+06 0.00266063
3.89950E+06 0.00263759
3.90742E+06 0.00262832
3.92135E+06 0.00261202
3.93136E+06 0.00260031
3.94336E+06 0.00258627
4.00000E+06 0.00252000
4.00239E+06 0.00251768
4.02510E+06 0.00249565
4.04176E+06 0.00247949
4.05851E+06 0.00246325
4.07114E+06 0.00245099
4.08385E+06 0.00243867
4.11155E+06 0.00241180
4.12442E+06 0.00239931
4.13952E+06 0.00238467
4.15472E+06 0.00236992
4.16561E+06 0.00235936
4.18314E+06 0.00234235
4.20298E+06 0.00232311
4.23863E+06 0.00228853
4.26566E+06 0.00226231
4.28156E+06 0.00224689
4.29983E+06 0.00222917
4.31363E+06 0.00221578
4.32286E+06 0.00220683
4.33907E+06 0.00219110
4.34601E+06 0.00218437
4.35770E+06 0.00217303
4.37198E+06 0.00215918
4.41458E+06 0.00211786
4.43607E+06 0.00209701
4.45537E+06 0.00207829
4.46990E+06 0.00206420
4.48451E+06 0.00205003
4.50000E+06 0.00203500
4.51641E+06 0.00201908
4.55364E+06 0.00198297
4.63208E+06 0.00190688
4.66038E+06 0.00187943
4.67851E+06 0.00186185
4.68894E+06 0.00185173
4.69676E+06 0.00184414
4.70988E+06 0.00183142
4.72833E+06 0.00181352
4.73625E+06 0.00180584
4.74690E+06 0.00179551
4.77093E+06 0.00177220
4.80323E+06 0.00174087
4.84680E+06 0.00169860
4.86882E+06 0.00167724
4.87990E+06 0.00166650
4.89101E+06 0.00165572
4.90493E+06 0.00164222
4.91613E+06 0.00163135
4.94709E+06 0.00160132
4.96411E+06 0.00158481
4.99839E+06 0.00155156
5.00000E+06 0.00155000
5.00000E+06 0.00155000
5.03016E+06 0.00153601
5.05051E+06 0.00152656
5.08869E+06 0.00150885
5.27984E+06 0.00142015
5.46288E+06 0.00133522
5.50000E+06 0.00131800
5.73543E+06 0.00120876
6.00000E+06 0.00108600
6.02896E+06 0.00107256
6.50000E+06 0.000854000
6.54425E+06 0.000833468
6.62690E+06 0.000795118
6.62694E+06 0.000795101
6.96001E+06 0.000640555
7.00000E+06 0.000622000
7.41645E+06 0.000428767
7.50000E+06 0.000390000
8.00000E+06 0.000341600
8.00000E+06 0.000341600
8.01201E+06 0.000340437
8.20950E+06 0.000321320
8.20952E+06 0.000321319
8.50000E+06 0.000293200
8.50000E+06 0.000293200
8.76247E+06 0.000267793
9.00000E+06 0.000244800
9.00000E+06 0.000244800
9.50000E+06 0.000196400
9.50000E+06 0.000196400
9.53232E+06 0.000193271
9.80937E+06 0.000166453
9.80940E+06 0.000166450
1.00000E+07 0.000148000
1.00047E+07 0.000148038
1.04740E+07 0.000151792
1.04741E+07 0.000151793
1.05000E+07 0.000152000
1.08013E+07 0.000154410
1.10000E+07 0.000156000
1.13334E+07 0.000158667
1.15000E+07 0.000160000
1.20000E+07 0.000164000
1.23434E+07 0.000169082
1.25000E+07 0.000171400
1.27338E+07 0.000174860
1.27340E+07 0.000174863
1.30000E+07 0.000178800
1.35000E+07 0.000186200
1.40000E+07 0.000193600
1.42435E+07 0.000197204
1.45000E+07 0.000201000
1.50000E+07 0.000195667
1.55000E+07 0.000190333
1.60000E+07 0.000185000
1.61422E+07 0.000183483
1.65000E+07 0.000179667
1.70000E+07 0.000174333
1.75000E+07 0.000169000
1.78885E+07 0.000150570
1.80000E+07 0.000145280
1.85000E+07 0.000121560
1.90000E+07 9.78400E-05
1.93940E+07 7.91486E-05
1.95000E+07 7.41200E-05
2.00000E+07 5.04005E-05
2.00000E+07 0.00000
2.08798E+07 0.00000
2.08960E+07 0.00000
2.10000E+07 0.00000
2.20000E+07 0.00000
2.30000E+07 0.00000
2.38849E+07 0.00000
2.40000E+07 0.00000
2.50000E+07 0.00000
2.53072E+07 0.00000
2.60000E+07 0.00000
2.70000E+07 0.00000
2.74116E+07 0.00000
2.75200E+07 0.00000
2.80000E+07 0.00000
2.89217E+07 0.00000
2.90000E+07 0.00000
2.93940E+07 0.00000
3.00000E+07 0.00000
3.10000E+07 0.00000
3.16522E+07 0.00000
3.20000E+07 0.00000
3.30000E+07 0.00000
3.32334E+07 0.00000
3.40000E+07 0.00000
3.40880E+07 0.00000
3.40880E+07 0.00000
3.50000E+07 0.00000
3.54636E+07 0.00000
3.56048E+07 0.00000
3.56048E+07 0.00000
3.60000E+07 0.00000
3.61990E+07 0.00000
3.65320E+07 0.00000
3.65320E+07 0.00000
3.70000E+07 0.00000
3.72936E+07 0.00000
3.80000E+07 0.00000
3.90000E+07 0.00000
3.97063E+07 0.00000
4.00000E+07 0.00000
4.10000E+07 0.00000
4.15245E+07 0.00000
4.15245E+07 0.00000
4.18548E+07 0.00000
4.20000E+07 0.00000
4.30000E+07 0.00000
4.30000E+07 0.00000
4.34394E+07 0.00000
4.35843E+07 0.00000
4.40000E+07 0.00000
4.40000E+07 0.00000
4.42171E+07 0.00000
4.50000E+07 0.00000
4.60000E+07 0.00000
4.70000E+07 0.00000
4.70319E+07 0.00000
4.71504E+07 0.00000
4.71504E+07 0.00000
4.80000E+07 0.00000
4.80000E+07 0.00000
4.90000E+07 0.00000
4.90000E+07 0.00000
4.95892E+07 0.00000
5.00000E+07 0.00000
5.08182E+07 0.00000
5.08182E+07 0.00000
5.10000E+07 0.00000
5.16437E+07 0.00000
5.16437E+07 0.00000
5.20000E+07 0.00000
5.20000E+07 0.00000
5.30000E+07 0.00000
5.30000E+07 0.00000
5.32297E+07 0.00000
5.32297E+07 0.00000
5.37367E+07 0.00000
5.37367E+07 0.00000
5.39723E+07 0.00000
5.40000E+07 0.00000
5.40000E+07 0.00000
5.50000E+07 0.00000
5.58585E+07 0.00000
5.60000E+07 0.00000
5.61739E+07 0.00000
5.70000E+07 0.00000
5.70000E+07 0.00000
5.80000E+07 0.00000
5.80000E+07 0.00000
5.90000E+07 0.00000
5.90000E+07 0.00000
5.90889E+07 0.00000
5.90889E+07 0.00000
6.00000E+07 0.00000
6.10000E+07 0.00000
6.10000E+07 0.00000
6.18172E+07 0.00000
6.20000E+07 0.00000
6.20000E+07 0.00000
6.20996E+07 0.00000
6.26744E+07 0.00000
6.26744E+07 0.00000
6.28695E+07 0.00000
6.28695E+07 0.00000
6.30000E+07 0.00000
6.30000E+07 0.00000
6.30509E+07 0.00000
6.30509E+07 0.00000
6.40000E+07 0.00000
6.40000E+07 0.00000
6.50000E+07 0.00000
6.60000E+07 0.00000
6.60000E+07 0.00000
6.70000E+07 0.00000
6.70000E+07 0.00000
6.74143E+07 0.00000
6.74143E+07 0.00000
6.80000E+07 0.00000
6.80000E+07 0.00000
6.90000E+07 0.00000
6.90000E+07 0.00000
7.00000E+07 0.00000
7.00000E+07 0.00000
7.10000E+07 0.00000
7.10000E+07 0.00000
7.12251E+07 0.00000
7.20000E+07 0.00000
7.20000E+07 0.00000
7.23509E+07 0.00000
7.23509E+07 0.00000
7.30000E+07 0.00000
7.30000E+07 0.00000
7.40000E+07 0.00000
7.40000E+07 0.00000
7.50000E+07 0.00000
7.50000E+07 0.00000
7.52964E+07 0.00000
7.52964E+07 0.00000
7.60000E+07 0.00000
7.60000E+07 0.00000
7.62641E+07 0.00000
7.62641E+07 0.00000
7.70000E+07 0.00000
7.70000E+07 0.00000
7.80000E+07 0.00000
7.80000E+07 0.00000
7.90000E+07 0.00000
7.90000E+07 0.00000
8.00000E+07 0.00000
8.00000E+07 0.00000
8.10000E+07 0.00000
8.20000E+07 0.00000
8.20000E+07 0.00000
8.30000E+07 0.00000
8.30000E+07 0.00000
8.40000E+07 0.00000
8.40000E+07 0.00000
8.50000E+07 0.00000
8.50000E+07 0.00000
8.59980E+07 0.00000
8.59980E+07 0.00000
8.60000E+07 0.00000
8.60000E+07 0.00000
8.70000E+07 0.00000
8.70000E+07 0.00000
8.80000E+07 0.00000
8.80000E+07 0.00000
8.90000E+07 0.00000
8.90000E+07 0.00000
9.00000E+07 0.00000
9.00000E+07 0.00000
9.10000E+07 0.00000
9.10000E+07 0.00000
9.20000E+07 0.00000
9.20000E+07 0.00000
9.30000E+07 0.00000
9.30000E+07 0.00000
9.40000E+07 0.00000
9.40000E+07 0.00000
9.50000E+07 0.00000
9.50000E+07 0.00000
9.60000E+07 0.00000
9.60000E+07 0.00000
9.70000E+07 0.00000
9.70000E+07 0.00000
9.80000E+07 0.00000
9.80000E+07 0.00000
9.90000E+07 0.00000
9.90000E+07 0.00000
1.00000E+08 0.00000
1.02000E+08 0.00000
1.04000E+08 0.00000
1.06000E+08 0.00000
1.08000E+08 0.00000
1.10000E+08 0.00000
1.12000E+08 0.00000
1.14000E+08 0.00000
1.16000E+08 0.00000
1.18000E+08 0.00000
1.20000E+08 0.00000
1.22000E+08 0.00000
1.24000E+08 0.00000
1.26000E+08 0.00000
1.28000E+08 0.00000
1.30000E+08 0.00000
1.32000E+08 0.00000
1.34000E+08 0.00000
1.36000E+08 0.00000
1.38000E+08 0.00000
1.40000E+08 0.00000
1.42000E+08 0.00000
1.44000E+08 0.00000
1.46000E+08 0.00000
1.48000E+08 0.00000
1.50000E+08 0.00000