Ni-61(n,g) ENDF/B-VII.1
Energy(eV) XS(b)
1.00000E-05 126.182
1.25000E-05 112.860
1.50000E-05 103.027
2.00000E-05 89.2239
2.75000E-05 76.0904
3.50000E-05 67.4469
4.25000E-05 61.2071
5.00000E-05 56.4301
6.25000E-05 50.4727
7.50000E-05 46.0750
0.000100000 39.9021
0.000125000 35.6896
0.000150000 32.5800
0.000200000 28.2151
0.000275000 24.0619
0.000350000 21.3286
0.000425000 19.3554
0.000500000 17.8448
0.000625000 15.9609
0.000750000 14.5702
0.00100000 12.6182
0.00125000 11.2860
0.00150000 10.3027
0.00200000 8.92237
0.00275000 7.60902
0.00350000 6.74467
0.00425000 6.12069
0.00500000 5.64299
0.00625000 5.04724
0.00750000 4.60747
0.0100000 3.99018
0.0125000 3.56892
0.0150000 3.25796
0.0200000 2.82146
0.0253000 2.50857
0.0314750 2.24906
0.0376500 2.05636
0.0500000 1.78440
0.0625000 1.59600
0.0750000 1.45693
0.100000 1.26171
0.125000 1.12848
0.150000 1.03014
0.200000 0.892089
0.275000 0.760728
0.350000 0.674271
0.500000 0.564065
0.750000 0.460460
1.00000 0.398686
1.50000 0.325390
2.00000 0.281678
2.75000 0.240064
3.50000 0.212661
5.00000 0.177702
7.50000 0.144790
10.0000 0.125131
15.0000 0.101747
20.0000 0.0877522
27.5000 0.0743764
35.0000 0.0655264
50.0000 0.0541656
75.0000 0.0433629
100.000 0.0368391
150.000 0.0289889
200.000 0.0242427
275.000 0.0196893
350.000 0.0166935
500.000 0.0129510
750.000 0.00979315
999.999 0.00902305
1000.00 0.00902306
1000.01 0.00902308
1000.01 0.00902310
1000.02 0.00902314
1000.05 0.00902323
1000.09 0.00902340
1000.17 0.00902373
1000.35 0.00902440
1000.69 0.00902576
1001.38 0.00902850
1002.76 0.00903411
1005.52 0.00904589
1011.03 0.00907173
1022.06 0.00913312
1044.11 0.00930062
1088.22 0.00988117
1132.34 0.0110120
1176.45 0.0132883
1220.56 0.0184470
1242.61 0.0237244
1264.67 0.0334851
1275.70 0.0417830
1286.72 0.0545330
1297.75 0.0755614
1308.78 0.113886
1314.29 0.146118
1319.81 0.195213
1325.32 0.275316
1330.84 0.419217
1333.59 0.538559
1336.35 0.717905
1339.11 1.00527
1341.86 1.50817
1344.62 2.50975
1346.00 3.43151
1347.38 4.96547
1348.76 7.79620
1349.45 10.1938
1350.13 13.8555
1350.82 19.8047
1351.51 30.2502
1352.20 50.3355
1352.55 67.3126
1352.89 91.5835
1353.45 147.148
1354.00 184.382
1354.56 147.050
1355.11 91.5352
1355.74 52.8173
1356.37 32.8132
1357.00 21.9549
1357.63 15.5894
1358.26 11.5922
1358.89 8.93662
1360.15 5.75916
1361.41 4.00954
1362.67 2.94962
1365.19 1.78626
1367.71 1.19697
1370.23 0.858239
1372.74 0.645901
1375.26 0.504110
1380.30 0.332434
1385.34 0.236452
1390.38 0.177396
1395.42 0.138488
1405.49 0.0920073
1415.57 0.0663478
1425.65 0.0506884
1435.72 0.0404288
1455.88 0.0282298
1476.03 0.0215151
1516.33 0.0147295
1556.64 0.0115165
1596.94 0.00973056
1677.56 0.00789731
1838.78 0.00653430
2000.00 0.00611971
2284.86 0.00634408
2569.71 0.00802778
2712.14 0.0101945
2854.57 0.0149559
2925.78 0.0197387
2996.99 0.0285480
3032.60 0.0361685
3068.21 0.0486701
3086.01 0.0589798
3103.81 0.0771201
3112.72 0.0950882
3121.62 0.136028
3126.07 0.186393
3128.29 0.234001
3130.52 0.317346
3132.75 0.486177
3133.86 0.645491
3134.97 0.919027
3136.08 1.45031
3136.64 1.92572
3137.20 2.69516
3137.75 4.05816
3138.31 6.77845
3138.59 9.25267
3138.86 13.2475
3139.14 20.0512
3139.42 31.9185
3139.71 51.0297
3140.00 63.7755
3140.29 51.0319
3140.58 31.9232
3140.87 19.6161
3141.16 12.7526
3141.46 8.80949
3141.75 6.41181
3142.04 4.85754
3142.33 3.80411
3142.91 2.51928
3143.50 1.79747
3144.08 1.35520
3145.25 0.864645
3146.41 0.613889
3147.58 0.469522
3149.91 0.319089
3152.25 0.247477
3154.58 0.208841
3159.25 0.173027
3168.58 0.157847
3177.91 0.166824
3196.58 0.216829
3215.24 0.314228
3233.91 0.507663
3243.24 0.681586
3252.57 0.963067
3261.90 1.45979
3271.24 2.44897
3275.90 3.34586
3280.57 4.78978
3285.23 7.24456
3289.90 11.5403
3294.95 18.9211
3300.00 23.9852
3305.05 18.8205
3310.10 11.4789
3315.49 6.74888
3320.88 4.26043
3326.27 2.88492
3331.66 2.06711
3337.05 1.54805
3342.44 1.20037
3353.22 0.780536
3364.00 0.547506
3374.78 0.405346
3396.34 0.248430
3417.90 0.168438
3439.46 0.122252
3461.02 0.0931985
3482.58 0.0737423
3525.69 0.0501137
3568.81 0.0368556
3655.05 0.0232900
3741.29 0.0168571
3827.53 0.0133299
4000.00 0.00986137
4000.00 0.00986134
4000.01 0.00986124
4000.02 0.00986114
4000.03 0.00986095
4000.06 0.00986056
4000.12 0.00985980
4000.25 0.00985826
4000.49 0.00985520
4000.98 0.00984909
4001.96 0.00983689
4003.91 0.00981268
4007.81 0.00976493
4015.63 0.00967205
4031.25 0.00949628
4062.50 0.00918113
4125.00 0.00867265
4250.00 0.00800932
4500.00 0.00752284
5000.00 0.00833341
5344.84 0.0101047
5689.68 0.0136037
5862.10 0.0167113
6034.51 0.0220335
6120.72 0.0266369
6206.93 0.0347191
6250.04 0.0419189
6293.14 0.0546747
6314.70 0.0659881
6336.25 0.0864032
6347.02 0.105962
6357.80 0.147467
6363.19 0.195517
6365.88 0.239674
6368.58 0.315819
6371.27 0.468414
6372.62 0.611938
6373.96 0.858852
6375.31 1.34035
6375.98 1.77497
6376.66 2.48331
6377.33 3.75363
6377.67 4.79898
6378.00 6.34362
6378.34 8.75922
6378.68 12.7611
6379.02 19.8266
6379.35 32.6798
6379.68 52.2744
6379.84 61.4666
6380.00 65.2957
6380.33 52.2112
6380.65 32.6837
6380.81 25.4284
6380.98 20.0012
6381.14 15.9764
6381.31 12.9715
6381.64 8.95177
6381.97 6.51499
6382.30 4.94002
6382.63 3.87724
6383.29 2.57895
6383.95 1.85242
6384.60 1.40733
6385.92 0.915345
6387.24 0.665391
6388.56 0.522703
6391.20 0.376981
6393.83 0.311139
6396.47 0.279263
6401.74 0.260184
6412.29 0.297034
6422.83 0.404074
6433.38 0.630619
6438.65 0.838792
6443.92 1.18097
6449.19 1.79751
6451.83 2.30696
6454.47 3.06531
6457.10 4.25496
6459.74 6.23922
6462.37 9.77877
6465.01 16.3386
6467.51 26.2417
6470.00 32.8755
6472.50 26.2084
6474.99 16.3174
6477.48 10.0421
6479.97 6.53943
6482.45 4.52269
6484.94 3.29062
6487.43 2.49368
6489.91 1.95301
6494.89 1.29164
6499.86 0.920173
6504.84 0.691979
6514.79 0.438717
6524.73 0.309269
6534.68 0.234680
6554.58 0.157114
6574.48 0.120439
6594.37 0.100978
6634.17 0.0840311
6673.96 0.0799610
6713.76 0.0821945
6753.55 0.0888331
6793.35 0.0996979
6833.14 0.115690
6872.93 0.138951
6912.73 0.173760
6952.52 0.228935
6972.42 0.269611
6992.32 0.324572
7012.22 0.401518
7032.11 0.513997
7052.01 0.687275
7071.91 0.971322
7091.80 1.46867
7111.70 2.37148
7130.85 3.73451
7150.00 4.63538
7169.15 3.73049
7188.30 2.38938
7206.56 1.56899
7224.81 1.10579
7243.07 0.842356
7261.33 0.688951
7297.84 0.551170
7334.35 0.532325
7370.86 0.591938
7407.38 0.733167
7443.89 0.988782
7480.40 1.41806
7525.20 2.21010
7570.00 2.72087
7614.80 2.16147
7659.60 1.35252
7693.55 0.936052
7727.49 0.667538
7761.44 0.493477
7795.39 0.377170
7863.28 0.239145
7931.18 0.164754
7999.07 0.120581
8066.96 0.0924042
8202.75 0.0602648
8338.54 0.0443305
8474.33 0.0384975
8542.22 0.0411726
8576.17 0.0459133
8610.11 0.0559351
8644.06 0.0787577
8661.03 0.101752
8678.01 0.143281
8694.98 0.229277
8703.47 0.311434
8711.95 0.453822
8720.44 0.732917
8724.68 0.985136
8728.93 1.39716
8733.17 2.13533
8735.29 2.74249
8737.41 3.64182
8738.48 4.26093
8739.54 5.04419
8740.60 6.05052
8741.66 7.36307
8742.72 9.10597
8743.78 11.4507
8744.84 14.6280
8745.90 18.8922
8746.93 24.1751
8747.95 30.2116
8750.00 37.7502
8751.03 35.5257
8752.05 30.1962
8754.10 18.8766
8756.42 10.9531
8758.73 6.83119
8761.05 4.58377
8763.36 3.26267
8765.68 2.43164
8767.99 1.87889
8772.62 1.21646
8777.25 0.851664
8781.88 0.630454
8791.14 0.387666
8800.40 0.264594
8809.66 0.193801
8828.18 0.119645
8846.71 0.0835431
8865.23 0.0632164
8902.27 0.0421724
8939.31 0.0318868
8976.35 0.0259722
9050.44 0.0195403
9198.60 0.0139168
9346.77 0.0112300
9643.10 0.00853704
9791.27 0.00802338
9865.35 0.00875534
9902.40 0.0125820
9911.66 0.0165592
9920.92 0.0276960
9925.55 0.0428388
9930.18 0.0841266
9932.49 0.138528
9934.81 0.279998
9935.97 0.455606
9936.54 0.614222
9937.12 0.872637
9937.70 1.33570
9937.99 1.71699
9938.28 2.27960
9938.57 3.15860
9938.86 4.60524
9939.15 7.14529
9939.44 11.7515
9939.72 18.8151
9940.00 23.5035
9940.28 18.7886
9940.56 11.7519
9940.80 7.83892
9941.03 5.42619
9941.26 3.91579
9941.49 2.93446
9941.96 1.80235
9942.42 1.21214
9942.89 0.868253
9943.35 0.652373
9944.28 0.407114
9946.14 0.203357
9947.99 0.123232
9951.71 0.0614642
9955.42 0.0385321
9962.85 0.0215186
9970.28 0.0153886
10000.0 0.00938940
10042.1 0.00832002
10084.3 0.00900952
10105.4 0.0104683
10126.4 0.0148060
10137.0 0.0207818
10147.5 0.0370452
10152.8 0.0583692
10155.4 0.0786067
10158.0 0.113258
10160.7 0.180614
10162.0 0.240791
10163.3 0.336944
10164.6 0.506862
10165.9 0.839309
10166.6 1.13949
10167.3 1.61774
10167.9 2.41723
10168.6 3.75214
10169.3 6.00223
10170.0 7.50282
10170.7 6.00132
10171.4 3.75162
10172.1 2.48071
10172.7 1.71345
10173.3 1.23518
10173.9 0.925367
10175.1 0.569486
10176.3 0.383904
10177.5 0.276141
10178.7 0.208392
10181.1 0.131513
10183.5 0.0912017
10185.9 0.0676847
10190.7 0.0426470
10200.3 0.0233217
10209.9 0.0161348
10229.1 0.0107742
10248.3 0.00881450
10286.8 0.00734047
10325.2 0.00677640
10479.0 0.00610319
10786.5 0.00591914
11094.0 0.00625716
11401.5 0.00722310
11709.0 0.00944780
11862.8 0.0116148
12016.6 0.0154052
12170.3 0.0230001
12247.2 0.0301005
12324.1 0.0422335
12362.5 0.0518448
12381.7 0.0581008
12401.0 0.0656936
12420.2 0.0750336
12429.8 0.0805310
12439.4 0.0866999
12449.0 0.0936539
12458.6 0.101531
12468.2 0.110501
12477.8 0.120774
12497.1 0.146346
12516.3 0.181301
12535.5 0.230722
12554.7 0.303487
12573.9 0.415961
12593.2 0.599977
12602.8 0.736814
12612.4 0.919284
12622.0 1.16409
12631.6 1.48960
12650.8 2.37752
12670.0 2.96519
12679.6 2.78810
12689.2 2.36864
12708.4 1.48137
12730.6 0.851565
12752.8 0.529168
12775.0 0.355427
12797.2 0.254262
12819.4 0.191064
12841.6 0.149336
12886.0 0.0998442
12930.3 0.0731206
12974.7 0.0574173
13063.5 0.0416817
13152.3 0.0362734
13241.0 0.0374405
13329.8 0.0479865
13352.0 0.0546667
13374.2 0.0680755
13385.3 0.0829290
13396.4 0.119058
13401.9 0.164240
13404.7 0.206548
13407.5 0.278695
13410.3 0.419008
13411.7 0.544900
13413.0 0.747410
13414.4 1.10891
13415.8 1.82920
13416.5 2.49820
13417.2 3.57067
13417.9 5.40819
13418.6 8.63772
13419.3 13.7858
13420.0 17.2186
13420.7 13.7848
13421.4 8.63795
13422.3 4.88726
13423.1 3.00774
13424.0 2.01098
13424.8 1.43604
13425.7 1.07917
13426.5 0.844135
13428.2 0.566528
13429.9 0.414253
13431.6 0.322792
13435.0 0.223954
13438.4 0.174811
13441.8 0.147504
13448.6 0.120852
13462.2 0.106413
13475.7 0.108250
13502.9 0.130141
13516.5 0.148448
13523.3 0.159780
13530.1 0.172851
13536.9 0.187958
13543.6 0.205479
13550.4 0.225898
13557.2 0.249833
13564.0 0.278080
13570.8 0.311670
13577.6 0.351955
13584.4 0.400718
13591.2 0.460344
13598.0 0.534040
13604.8 0.626156
13611.5 0.742593
13618.3 0.891302
13625.1 1.08270
13631.9 1.32951
13638.7 1.64463
13654.4 2.61761
13670.0 3.26149
13677.9 3.06772
13685.7 2.60737
13701.4 1.63349
13712.3 1.16507
13723.2 0.852204
13734.1 0.643003
13745.0 0.500204
13766.8 0.327312
13788.6 0.233168
13810.3 0.177724
13832.1 0.143531
13875.7 0.109896
13919.3 0.106592
13941.1 0.117827
13962.9 0.144592
13984.6 0.204313
13995.5 0.260901
14006.4 0.355267
14017.3 0.527487
14022.8 0.670957
14028.2 0.885315
14033.7 1.22420
14039.1 1.79293
14044.6 2.81932
14050.0 4.73767
14055.0 7.53721
14060.0 9.39096
14065.1 7.50006
14070.1 4.68283
14076.0 2.66701
14082.0 1.64801
14087.9 1.10272
14093.8 0.786054
14099.7 0.588448
14105.6 0.457711
14117.5 0.301714
14129.3 0.215990
14141.2 0.164026
14164.8 0.106764
14188.5 0.0774514
14212.2 0.0604011
14259.6 0.0423301
14306.9 0.0338006
14354.3 0.0306447
14378.0 0.0319001
14401.7 0.0392573
14413.5 0.0508132
14425.4 0.0840462
14431.3 0.129246
14434.2 0.173205
14437.2 0.250934
14440.2 0.408132
14441.6 0.555114
14443.1 0.804287
14444.6 1.27646
14445.3 1.68830
14446.1 2.33628
14446.8 3.43459
14447.6 5.48929
14447.9 7.23241
14448.3 9.85501
14448.7 13.9237
14449.0 20.2681
14449.5 32.6423
14450.0 40.7042
14450.5 32.3709
14451.0 20.2674
14451.5 12.3989
14451.9 8.09705
14452.4 5.60732
14452.9 4.08030
14453.4 3.07324
14453.9 2.40459
14454.8 1.58388
14455.8 1.11760
14456.8 0.833890
14458.7 0.516555
14460.6 0.353880
14462.6 0.259662
14466.4 0.160477
14470.3 0.112073
14474.1 0.0848676
14481.9 0.0569229
14497.3 0.0360431
14512.7 0.0283023
14543.6 0.0222772
14574.5 0.0198234
14698.0 0.0166913
14945.1 0.0163853
15192.1 0.0189820
15315.6 0.0217590
15377.4 0.0254678
15392.8 0.0282157
15408.3 0.0352255
15416.0 0.0444311
15423.7 0.0692567
15427.6 0.101938
15431.4 0.187330
15433.3 0.294094
15435.3 0.550978
15436.2 0.842357
15437.2 1.44159
15437.7 2.02368
15438.2 2.99030
15438.7 4.74197
15439.1 8.05098
15439.6 12.8974
15440.0 16.0189
15440.4 12.7799
15440.9 8.05089
15441.2 5.87351
15441.4 4.41294
15442.0 2.67313
15442.5 1.75105
15443.1 1.23594
15444.1 0.705484
15445.2 0.458024
15447.4 0.243360
15449.6 0.156131
15453.9 0.0870595
15458.3 0.0609921
15467.0 0.0415602
15475.7 0.0346718
15493.1 0.0299851
15510.5 0.0287014
15580.2 0.0295774
15649.8 0.0331676
15684.6 0.0383866
15702.0 0.0530097
15706.4 0.0669150
15710.7 0.104248
15712.9 0.153119
15715.1 0.278292
15716.2 0.432434
15717.3 0.793691
15717.8 1.19260
15718.3 1.97279
15718.6 2.67614
15718.9 3.80118
15719.2 5.69288
15719.4 8.93972
15719.7 14.2827
15720.0 17.8448
15720.3 14.2828
15720.6 8.93996
15720.8 5.97416
15721.1 4.19907
15721.3 3.03027
15721.5 2.29904
15722.0 1.42999
15722.5 0.973492
15723.4 0.539297
15724.3 0.349659
15726.2 0.189864
15728.1 0.127254
15731.8 0.0788769
15735.6 0.0610643
15750.6 0.0436917
15780.5 0.0408136
15840.4 0.0439174
15960.3 0.0548067
16080.2 0.0705269
16200.0 0.0925069
16405.0 0.144507
16610.0 0.177939
16714.6 0.167868
16767.0 0.159642
16793.1 0.164780
16799.7 0.174684
16806.2 0.204630
16809.5 0.245667
16812.7 0.354657
16814.4 0.492603
16816.0 0.824344
16816.8 1.20222
16817.7 1.99474
16818.1 2.75424
16818.5 4.05088
16818.9 6.43830
16819.3 10.8830
16819.6 17.2711
16820.0 21.5065
16820.4 17.2707
16820.7 10.8826
16821.1 6.51784
16821.5 4.17839
16821.9 2.87557
16822.3 2.09863
16823.1 1.27420
16823.8 0.874862
16825.4 0.518379
16827.0 0.370091
16830.1 0.249812
16833.2 0.203422
16839.4 0.167236
16845.6 0.152994
16870.5 0.134017
16920.4 0.118631
17020.0 0.0972059
17224.8 0.0729518
17327.1 0.0700571
17429.5 0.0745076
17531.9 0.0906744
17634.3 0.132019
17685.4 0.173849
17736.6 0.246440
17762.2 0.302941
17787.8 0.381010
17813.4 0.489972
17839.0 0.640850
17861.8 0.815213
17884.5 1.01468
17930.0 1.26160
17952.8 1.18515
17975.5 1.00657
18021.0 0.631332
18049.6 0.465776
18078.1 0.350714
18135.3 0.214853
18192.4 0.144393
18249.5 0.104332
18306.7 0.0797542
18363.8 0.0638021
18478.1 0.0457532
18592.3 0.0381943
18706.6 0.0400599
18763.7 0.0479845
18820.8 0.0695838
18849.4 0.0936033
18878.0 0.140324
18892.3 0.181156
18906.5 0.244053
18920.8 0.344466
18935.1 0.506054
18952.6 0.799705
18970.0 0.994458
18987.5 0.797090
19004.9 0.502753
19020.5 0.329880
19036.0 0.226742
19051.6 0.164155
19067.1 0.124396
19098.2 0.0795015
19129.3 0.0563660
19160.4 0.0429359
19191.5 0.0344332
19253.7 0.0245867
19315.9 0.0192091
19378.1 0.0158717
19502.5 0.0119641
19751.2 0.00825996
20000.0 0.00643024
20174.7 0.00568218
20262.0 0.00570484
20305.7 0.00694050
20327.5 0.0122077
20338.4 0.0321039
20343.9 0.101579
20345.3 0.164471
20346.6 0.313695
20347.3 0.479911
20348.0 0.820402
20348.7 1.66726
20349.0 2.60505
20349.4 4.32978
20349.7 6.98940
20350.0 8.69991
20350.3 6.90324
20350.7 4.32981
20351.0 2.68011
20351.3 1.77281
20351.9 0.907529
20352.5 0.538127
20353.2 0.356552
20354.4 0.188779
20355.6 0.117763
20360.6 0.0370499
20370.6 0.0134784
20390.5 0.00706398
20430.4 0.00531438
20510.0 0.00476627
20589.7 0.00492436
20629.6 0.00646253
20649.5 0.0127446
20659.5 0.0363906
20664.5 0.119207
20665.7 0.194504
20666.9 0.373930
20667.6 0.579478
20668.2 1.00041
20668.8 2.06973
20669.1 3.28445
20669.4 5.65210
20669.7 9.06169
20670.0 11.3033
20670.3 9.06174
20670.6 5.65219
20670.9 3.03333
20671.3 1.81122
20672.0 0.825778
20672.7 0.464902
20673.5 0.297136
20674.9 0.151928
20676.3 0.0928186
20682.1 0.0285653
20693.6 0.0105463
20716.7 0.00574124
20762.9 0.00444092
20855.2 0.00401305
21039.8 0.00387732
21224.4 0.00455321
21270.6 0.00527234
21316.7 0.00714750
21362.9 0.0161643
21374.4 0.0250002
21386.0 0.0491957
21391.7 0.0815488
21397.5 0.168038
21400.4 0.279651
21403.3 0.559081
21404.7 0.890606
21405.4 1.17870
21406.2 1.63023
21406.9 2.39136
21407.6 3.80338
21408.0 4.99101
21408.3 6.76294
21408.7 9.48281
21409.0 13.6720
21409.5 22.0231
21410.0 27.4636
21410.5 21.8403
21411.0 13.6718
21411.4 9.20793
21411.7 6.47050
21412.1 4.68649
21412.5 3.54537
21413.3 2.19552
21414.1 1.48254
21414.8 1.06514
21415.6 0.801261
21417.1 0.500267
21420.2 0.249226
21423.3 0.150082
21429.5 0.0735914
21435.6 0.0453073
21447.9 0.0246071
21460.2 0.0176133
21484.9 0.0139964
21509.5 0.0156068
21534.1 0.0223454
21558.7 0.0431022
21571.1 0.0715549
21577.2 0.0992557
21583.4 0.148161
21589.5 0.247252
21592.6 0.339969
21595.7 0.496599
21598.8 0.794347
21600.3 1.05424
21601.8 1.46345
21603.4 2.15766
21604.9 3.45786
21605.7 4.56187
21606.5 6.22374
21607.2 8.80213
21608.0 12.7536
21609.0 20.4299
21610.0 25.4727
21611.0 20.3470
21612.0 12.7525
21612.6 9.36323
21613.3 7.03060
21614.5 4.23237
21615.8 2.77413
21617.0 1.94779
21618.3 1.43382
21619.5 1.09727
21622.0 0.701271
21624.5 0.485385
21627.0 0.356183
21632.0 0.215260
21637.0 0.144428
21642.0 0.103915
21651.9 0.0617714
21661.9 0.0413953
21671.9 0.0300338
21691.8 0.0184415
21711.8 0.0129384
21731.7 0.00989282
21771.6 0.00679949
21851.4 0.00450512
21931.2 0.00365404
22090.8 0.00299124
22250.4 0.00272852
22888.8 0.00255602
23208.0 0.00277433
23527.2 0.00336531
23686.8 0.00396797
23846.4 0.00505681
23926.2 0.00599260
24006.0 0.00758617
24045.9 0.00902430
24085.8 0.0119177
24105.8 0.0151257
24115.8 0.0179925
24125.7 0.0227934
24135.7 0.0320262
24140.7 0.0403322
24145.7 0.0539106
24150.7 0.0785237
24153.2 0.0990919
24155.7 0.129902
24158.2 0.179151
24160.6 0.262809
24163.1 0.416703
24165.6 0.713695
24167.8 1.13622
24170.0 1.41796
24172.2 1.13607
24174.4 0.713826
24175.9 0.513649
24177.4 0.378574
24180.3 0.225279
24183.3 0.148751
24186.3 0.106346
24189.3 0.0806879
24192.2 0.0642117
24198.2 0.0451200
24204.1 0.0350078
24210.1 0.0291197
24221.9 0.0230696
24245.7 0.0192858
24269.5 0.0190625
24317.0 0.0223195
24364.6 0.0291759
24412.2 0.0413312
24459.7 0.0640562
24483.5 0.0831160
24507.3 0.111388
24531.0 0.154460
24554.8 0.220104
24587.4 0.350695
24620.0 0.437144
24652.6 0.349478
24685.2 0.218902
24722.3 0.127136
24759.4 0.0796457
24796.5 0.0538559
24833.6 0.0387426
24870.7 0.0292596
24907.8 0.0229734
24982.0 0.0154903
25056.2 0.0114702
25130.4 0.00930155
25167.5 0.00886862
25204.6 0.00943120
25223.2 0.0108936
25241.7 0.0155601
25251.0 0.0221511
25260.3 0.0402995
25264.9 0.0642874
25269.6 0.126596
25271.9 0.203669
25274.2 0.385967
25275.4 0.586968
25276.5 0.993184
25277.1 1.36707
25277.7 1.97823
25278.3 3.03665
25278.8 4.87858
25279.4 7.84361
25280.0 9.78155
25280.6 7.78961
25281.2 4.87838
25281.6 3.48238
25282.0 2.54320
25282.8 1.47813
25283.6 0.948771
25284.4 0.658809
25286.0 0.366508
25287.6 0.233775
25290.7 0.119820
25293.9 0.0738881
25300.3 0.0378883
25306.7 0.0243152
25319.5 0.0140827
25332.2 0.0102930
25357.7 0.00738215
25383.2 0.00621892
25485.3 0.00463653
25689.4 0.00368290
25893.5 0.00348410
25944.6 0.00363789
25995.6 0.00418790
26021.1 0.00498494
26046.6 0.00721722
26059.4 0.0102181
26072.2 0.0182179
26078.5 0.0284460
26084.9 0.0538497
26088.1 0.0835899
26091.3 0.148701
26092.9 0.214516
26094.5 0.332680
26096.1 0.569495
26096.9 0.779045
26097.7 1.08538
26098.8 1.73513
26100.0 2.16832
26101.2 1.73492
26102.3 1.08524
26103.3 0.733012
26104.2 0.513817
26105.1 0.374559
26106.1 0.283038
26107.9 0.175982
26109.8 0.119773
26113.5 0.0658975
26117.3 0.0421491
26124.7 0.0222940
26132.2 0.0144454
26147.1 0.00837527
26162.0 0.00611769
26221.6 0.00383880
26340.8 0.00331556
26460.0 0.00361182
26519.7 0.00507384
26549.5 0.0107355
26564.4 0.0320841
26571.8 0.108213
26573.7 0.178788
26575.6 0.351731
26576.5 0.551800
26577.4 0.982884
26577.9 1.41506
26578.3 2.16362
26578.8 3.65520
26579.3 6.76251
26579.6 10.8423
26580.0 13.5224
26580.4 10.8422
26580.7 6.76251
26581.0 4.41606
26581.4 3.02280
26582.0 1.61179
26582.6 0.982962
26583.2 0.657583
26584.5 0.350266
26585.7 0.217813
26588.2 0.107998
26590.7 0.0650139
26600.6 0.0197888
26620.6 0.00749299
26660.4 0.00431409
26740.1 0.00357656
26899.4 0.00362275
27058.8 0.00413115
27138.5 0.00525515
27158.4 0.00624623
27178.3 0.00888141
27188.3 0.0123551
27198.2 0.0215418
27203.2 0.0332450
27208.2 0.0622400
27210.7 0.0961113
27213.2 0.170081
27214.4 0.244735
27215.7 0.378135
27216.9 0.647232
27217.5 0.881306
27218.2 1.22672
27219.1 1.96048
27220.0 2.44966
27220.9 1.96032
27221.8 1.22664
27222.9 0.705916
27224.0 0.440137
27225.0 0.295845
27226.1 0.211256
27228.2 0.122858
27230.3 0.0806264
27234.5 0.0433325
27238.7 0.0279092
27255.5 0.0109769
27289.1 0.00628672
27356.3 0.00534961
27490.7 0.00622261
27557.9 0.00744172
27625.1 0.0102427
27658.7 0.0134337
27692.3 0.0205030
27709.1 0.0278633
27725.9 0.0418464
27734.3 0.0539399
27742.7 0.0725115
27751.1 0.102117
27759.5 0.149789
27769.8 0.236525
27780.0 0.294383
27790.3 0.236373
27800.5 0.149900
27811.4 0.0922595
27822.3 0.0611964
27833.1 0.0438299
27844.0 0.0334732
27865.8 0.0225288
27887.5 0.0173419
27931.0 0.0130574
27974.5 0.0118056
28018.1 0.0119954
28061.6 0.0139827
28083.3 0.0168325
28105.1 0.0245765
28116.0 0.0349079
28126.8 0.0627047
28132.3 0.0990525
28137.7 0.192777
28140.4 0.307946
28141.8 0.411111
28143.1 0.578083
28144.5 0.873041
28145.9 1.46176
28146.5 1.99635
28147.2 2.85772
28147.9 4.31987
28148.6 6.80838
28149.3 10.9088
28150.0 13.5881
28150.7 10.8475
28151.4 6.80810
28151.9 4.89590
28152.4 3.59718
28153.4 2.10860
28154.3 1.36104
28155.3 0.944946
28156.2 0.692831
28157.2 0.529585
28159.1 0.339053
28161.0 0.236795
28163.0 0.175815
28166.8 0.110075
28174.5 0.0584895
28182.1 0.0392403
28197.5 0.0251343
28212.8 0.0204026
28243.5 0.0180206
28274.2 0.0190138
28304.9 0.0228351
28320.2 0.0267478
28335.6 0.0337124
28350.9 0.0479840
28358.6 0.0615915
28366.3 0.0852949
28374.0 0.132442
28381.6 0.247819
28385.5 0.381097
28387.4 0.494288
28389.3 0.666430
28391.2 0.948085
28392.2 1.15890
28393.1 1.44463
28394.1 1.84130
28395.1 2.40485
28396.0 3.21877
28397.0 4.37420
28397.7 5.59195
28398.5 6.98222
28400.0 8.71763
28400.8 8.19437
28401.5 6.96315
28403.1 4.35924
28404.0 3.22845
28404.9 2.43988
28406.7 1.49081
28408.6 0.987271
28410.4 0.699402
28412.3 0.520103
28414.1 0.402827
28417.8 0.263678
28421.5 0.187672
28425.2 0.141957
28432.6 0.0922961
28439.9 0.0673890
28447.3 0.0532717
28462.1 0.0388505
28476.8 0.0322313
28491.6 0.0288620
28521.0 0.0262422
28580.0 0.0269204
28639.0 0.0307821
28757.0 0.0459869
28816.0 0.0587722
28875.0 0.0766242
28977.5 0.119778
29080.0 0.148340
29182.5 0.120719
29285.0 0.0885967
29300.8 0.0924336
29316.5 0.112266
29324.4 0.142423
29332.3 0.224392
29336.2 0.327485
29338.2 0.420830
29340.2 0.573229
29342.1 0.845492
29344.1 1.39815
29345.1 1.91231
29346.1 2.74799
29347.1 4.22037
29348.1 6.83809
29349.0 10.9294
29350.0 13.6198
29351.0 10.8837
29352.0 6.83676
29352.7 4.75038
29353.4 3.39791
29354.1 2.51840
29354.9 1.92984
29356.3 1.23124
29357.8 0.855235
29359.3 0.632340
29360.7 0.490145
29363.6 0.326396
29366.6 0.239455
29369.5 0.187824
29375.3 0.131946
29381.2 0.103675
29387.0 0.0871757
29398.7 0.0691495
29422.0 0.0534199
29445.4 0.0457372
29538.8 0.0316837
29632.2 0.0251098
29725.7 0.0214398
29912.5 0.0186029
30006.0 0.0188601
30052.7 0.0202038
30076.0 0.0244767
30087.7 0.0398302
30093.6 0.0937714
30096.5 0.263029
30097.9 0.690773
30098.7 1.46103
30099.0 2.36306
30099.4 4.19615
30099.7 6.66735
30100.0 8.37316
30100.3 6.66736
30100.6 4.19620
30101.1 1.91395
30101.7 1.02962
30102.7 0.430485
30104.8 0.155245
30108.9 0.0586814
30117.2 0.0301253
30133.8 0.0225780
30167.0 0.0211656
30233.3 0.0223463
30366.1 0.0285111
30432.4 0.0349369
30498.8 0.0489621
30532.0 0.0652197
30548.6 0.0799377
30565.1 0.104684
30581.7 0.151966
30590.0 0.194050
30598.3 0.261924
30606.6 0.382010
30614.9 0.622335
30619.1 0.842105
30623.2 1.19886
30627.4 1.81118
30631.5 2.88629
30635.8 4.59596
30640.0 5.73507
30644.3 4.59510
30648.5 2.88615
30651.2 2.11762
30653.9 1.58707
30659.3 0.962559
30664.7 0.641085
30670.1 0.459637
30675.5 0.348395
30680.9 0.276078
30691.8 0.191313
30702.6 0.145915
30713.4 0.119168
30735.0 0.0911793
30759.7 0.0771751
30784.4 0.0710743
30833.8 0.0683959
30932.5 0.0753968
31130.0 0.0885474
31228.8 0.0832581
31327.5 0.0718157
31525.0 0.0496886
31599.8 0.0453171
31674.5 0.0462306
31711.9 0.0522062
31749.3 0.0719250
31767.9 0.0988609
31777.3 0.124438
31786.6 0.168070
31796.0 0.251347
31800.7 0.324219
31805.3 0.439242
31810.0 0.634989
31814.7 1.00326
31817.0 1.31823
31819.3 1.79253
31821.7 2.53631
31824.0 3.69881
31827.0 5.90025
31830.0 7.36719
31833.0 5.89880
31836.0 3.69723
31839.0 2.30354
31841.9 1.51759
31844.8 1.06042
31847.8 0.779162
31853.7 0.471504
31859.5 0.318760
31865.4 0.232500
31871.3 0.179425
31883.1 0.120246
31894.8 0.0897637
31906.6 0.0720599
31930.1 0.0533334
31977.2 0.0390790
32024.3 0.0341510
32118.4 0.0323614
32212.5 0.0359007
32306.6 0.0452649
32400.8 0.0656611
32447.8 0.0841772
32494.9 0.113292
32541.9 0.160679
32589.0 0.238435
32644.5 0.375879
32700.0 0.466638
32755.5 0.373801
32811.0 0.235950
32863.4 0.151454
32915.8 0.102687
32968.2 0.0739556
33020.7 0.0562103
33125.5 0.0371968
33230.3 0.0289913
33335.1 0.0272601
33387.5 0.0291367
33440.0 0.0341966
33492.4 0.0457476
33518.6 0.0565885
33544.8 0.0743123
33571.0 0.105503
33597.2 0.166446
33610.3 0.220330
33623.4 0.304515
33636.5 0.441623
33649.6 0.667771
33657.2 0.851986
33664.8 1.06244
33680.0 1.32488
33695.2 1.06084
33710.4 0.665814
33723.5 0.439574
33736.6 0.302401
33749.7 0.218025
33762.8 0.163915
33789.0 0.102321
33815.1 0.0704497
33841.3 0.0519781
33867.5 0.0403555
33919.9 0.0270780
33972.3 0.0200268
34024.6 0.0157993
34129.4 0.0111196
34234.1 0.00865713
34338.8 0.00716533
34548.3 0.00548196
34967.3 0.00410820
35386.2 0.00383178
35805.2 0.00445685
36014.6 0.00534962
36224.1 0.00708240
36433.6 0.0107436
36538.3 0.0142206
36643.1 0.0201513
36747.8 0.0314367
36800.2 0.0413019
36852.5 0.0568466
36904.9 0.0832386
36957.3 0.132721
36983.5 0.174796
37009.6 0.238192
37035.8 0.336735
37062.0 0.490626
37079.0 0.627497
37096.0 0.783778
37130.0 0.978270
37164.0 0.781925
37198.0 0.488821
37229.7 0.310824
37261.3 0.207201
37293.0 0.145569
37324.7 0.107058
37388.0 0.0643393
37451.3 0.0427921
37514.7 0.0305419
37578.0 0.0229502
37704.6 0.0144513
37831.3 0.0100636
37957.9 0.00751169
38211.3 0.00481962
38464.6 0.00351445
38717.9 0.00280153
39224.5 0.00217098
39731.1 0.00213552
39984.4 0.00235483
40237.8 0.00286233
40491.1 0.00399536
40617.7 0.00508341
40744.4 0.00693729
40871.0 0.0104386
40934.4 0.0134694
40997.7 0.0181927
41061.0 0.0260870
41124.4 0.0405335
41156.0 0.0525155
41187.7 0.0701413
41219.3 0.0967205
41251.0 0.136810
41273.3 0.174802
41295.5 0.218174
41340.0 0.272108
41384.5 0.217574
41429.0 0.136235
41457.4 0.0997081
41485.7 0.0744154
41542.4 0.0447280
41599.2 0.0294525
41655.9 0.0208185
41712.6 0.0155358
41769.3 0.0120948
41882.8 0.00806633
41996.2 0.00591413
42109.6 0.00465595
42336.5 0.00340899
42563.4 0.00304730
42790.3 0.00348938
42903.7 0.00435692
42960.4 0.00521102
43017.1 0.00670460
43073.9 0.00970718
43102.2 0.0125493
43130.6 0.0175176
43158.9 0.0275770
43173.1 0.0371069
43187.3 0.0536167
43201.5 0.0861664
43215.7 0.165021
43222.7 0.254822
43229.8 0.444498
43233.4 0.628255
43236.9 0.944521
43240.5 1.53657
43242.2 2.02331
43244.0 2.70632
43247.0 4.32660
43250.0 5.40646
43253.0 4.32605
43256.0 2.70593
43258.7 1.76011
43261.3 1.19526
43263.9 0.851128
43266.6 0.632106
43271.9 0.384942
43277.1 0.258273
43282.4 0.185582
43287.7 0.140290
43298.3 0.0894393
43308.8 0.0632421
43319.4 0.0481880
43340.5 0.0328413
43361.6 0.0261653
43382.8 0.0234242
43425.0 0.0243833
43467.3 0.0334195
43488.4 0.0431345
43509.5 0.0600228
43530.6 0.0920032
43541.2 0.119506
43551.8 0.161984
43562.3 0.232043
43572.9 0.357301
43578.2 0.458794
43583.4 0.604889
43588.7 0.819296
43594.0 1.13305
43598.0 1.44939
43602.0 1.81087
43610.0 2.26230
43618.0 1.80990
43626.0 1.13198
43633.2 0.732660
43640.3 0.494920
43647.5 0.351019
43654.6 0.259872
43668.9 0.157469
43683.2 0.105200
43697.5 0.0752152
43711.8 0.0565250
43740.4 0.0354784
43769.0 0.0245357
43797.6 0.0181363
43854.8 0.0113272
43911.9 0.00796625
43969.1 0.00606487
44083.5 0.00411483
44197.9 0.00321073
44312.3 0.00275641
44541.0 0.00250092
44769.8 0.00288408
44884.1 0.00342739
44998.5 0.00445830
45112.9 0.00659417
45170.1 0.00860291
45227.3 0.0120184
45284.4 0.0185321
45313.0 0.0242634
45341.6 0.0333721
45370.2 0.0490734
45398.8 0.0792376
45413.1 0.105581
45427.4 0.146339
45441.7 0.212008
45456.0 0.318845
45464.5 0.407545
45473.0 0.508876
45490.0 0.635340
45507.0 0.508518
45524.0 0.318630
45543.0 0.186786
45562.0 0.117768
45581.0 0.0800103
45600.0 0.0577984
45619.0 0.0438512
45638.0 0.0346181
45676.0 0.0237061
45714.0 0.0179382
45752.0 0.0147389
45828.0 0.0123816
45904.0 0.0138629
45942.0 0.0165031
45980.0 0.0215463
46018.0 0.0315233
46037.0 0.0402667
46056.0 0.0539062
46075.0 0.0765893
46094.0 0.117616
46103.5 0.151181
46113.0 0.199912
46122.5 0.272166
46132.0 0.379091
46139.0 0.484470
46146.0 0.604874
46160.0 0.755138
46174.0 0.604272
46188.0 0.378367
46202.9 0.226843
46217.8 0.145059
46232.7 0.0991941
46247.6 0.0716935
46262.5 0.0541434
46277.4 0.0423417
46307.1 0.0280295
46336.9 0.0200456
46366.7 0.0151509
46426.3 0.00970671
46485.8 0.00689665
46545.4 0.00525149
46664.5 0.00348571
46783.6 0.00259729
46902.8 0.00208322
47141.0 0.00153855
47617.5 0.00113396
48094.0 0.00103494
48570.5 0.00109042
49047.0 0.00133749
49285.3 0.00160524
49523.5 0.00209398
49761.8 0.00311169
49880.9 0.00409226
50000.0 0.00581351
50110.6 0.00891540
50165.9 0.0116387
50221.3 0.0159578
50276.6 0.0233716
50331.9 0.0375187
50359.5 0.0497776
50387.2 0.0686023
50414.9 0.0986073
50428.7 0.119960
50442.5 0.146830
50459.4 0.187686
50476.3 0.234318
50510.0 0.292441
50526.9 0.275153
50543.8 0.233934
50577.5 0.146477
50598.2 0.108391
50618.9 0.0816552
50660.4 0.0497190
50701.8 0.0329850
50743.2 0.0234126
50784.6 0.0175060
50826.0 0.0136362
50908.9 0.00907396
50991.7 0.00661205
51074.6 0.00514977
51240.3 0.00360747
51405.9 0.00290116
51571.6 0.00257863
51903.0 0.00254205
52234.4 0.00320155
52400.1 0.00396011
52565.8 0.00532638
52731.4 0.00805046
52814.3 0.0105361
52897.1 0.0146346
52980.0 0.0220889
53021.4 0.0283227
53062.8 0.0377232
53104.2 0.0527383
53145.7 0.0784710
53166.4 0.0984741
53187.1 0.126205
53207.8 0.165119
53228.5 0.219359
53264.3 0.349942
53300.0 0.436702
53335.8 0.349415
53371.5 0.218930
53413.5 0.125171
53455.4 0.0776085
53497.4 0.0521801
53539.4 0.0374523
53581.4 0.0283031
53623.3 0.0222917
53707.3 0.0152351
53791.2 0.0115179
53875.1 0.00944412
54043.0 0.00780695
54210.9 0.00835489
54294.8 0.00957339
54378.8 0.0118627
54462.7 0.0161404
54546.6 0.0247476
54588.6 0.0324521
54630.6 0.0446001
54672.5 0.0645723
54693.5 0.0791527
54714.5 0.0978497
54738.4 0.124559
54762.3 0.155049
54810.0 0.193003
54833.9 0.181657
54857.8 0.154664
54905.5 0.0974356
54953.1 0.0608625
55000.8 0.0403717
55048.4 0.0285605
55096.0 0.0213555
55191.3 0.0135835
55286.5 0.00982661
55381.8 0.00782922
55477.0 0.00674579
55667.5 0.00611452
55858.0 0.00714380
55953.3 0.00858435
56048.5 0.0112598
56143.8 0.0165540
56191.4 0.0212530
56239.0 0.0287116
56286.6 0.0414658
56334.3 0.0655660
56358.1 0.0862149
56381.9 0.117545
56405.7 0.166678
56429.5 0.244200
56459.8 0.389388
56490.0 0.485907
56520.3 0.388847
56550.5 0.243672
56578.6 0.155656
56606.7 0.104339
56634.8 0.0737826
56662.9 0.0546779
56719.1 0.0334827
56775.3 0.0228076
56831.4 0.0167604
56887.6 0.0130418
57000.0 0.00896941
57000.0 0.0100657
57012.1 0.00974370
57024.2 0.00944520
57036.4 0.00916880
57048.5 0.00891280
57060.7 0.00867550
57072.8 0.00845570
57097.1 0.00806310
57121.4 0.00772660
57145.7 0.00743920
57163.7 0.00725400
57190.4 0.00702030
57208.4 0.00688790
57226.3 0.00677390
57244.3 0.00667730
57262.2 0.00659740
57280.2 0.00653330
57298.2 0.00648470
57316.1 0.00645110
57334.1 0.00643230
57352.0 0.00642820
57370.0 0.00643890
57387.9 0.00646450
57405.9 0.00650530
57423.8 0.00656180
57441.8 0.00663470
57459.8 0.00672460
57477.7 0.00683260
57495.7 0.00695980
57513.6 0.00710760
57531.6 0.00727770
57549.5 0.00747200
57567.5 0.00769280
57585.4 0.00794290
57603.4 0.00822530
57621.4 0.00854390
57639.3 0.00890300
57657.3 0.00930800
57675.2 0.00976490
57693.2 0.0102810
57711.1 0.0108660
57720.1 0.0111870
57729.1 0.0115290
57738.1 0.0118940
57747.0 0.0122840
57754.2 0.0126150
57757.8 0.0127880
57761.4 0.0129650
57768.6 0.0133340
57775.8 0.0137240
57782.9 0.0141360
57790.1 0.0145720
57797.3 0.0150340
57800.9 0.0152750
57804.5 0.0155240
57808.1 0.0157800
57811.7 0.0160430
57815.3 0.0163150
57818.9 0.0165950
57822.4 0.0168830
57826.0 0.0171810
57829.6 0.0174880
57833.2 0.0178040
57836.8 0.0181310
57840.4 0.0184680
57844.0 0.0188160
57847.6 0.0191760
57851.2 0.0195470
57854.8 0.0199310
57858.4 0.0203270
57861.9 0.0207370
57865.5 0.0211610
57869.1 0.0216000
57872.7 0.0220540
57876.3 0.0225240
57879.9 0.0230100
57883.5 0.0235140
57887.1 0.0240360
57890.7 0.0245770
57894.3 0.0251380
57897.9 0.0257200
57901.4 0.0263230
57905.0 0.0269490
57908.6 0.0276000
57912.2 0.0282750
57915.8 0.0289760
57919.4 0.0297060
57923.0 0.0304640
57926.6 0.0312520
57930.2 0.0320730
57933.8 0.0329270
57937.4 0.0338160
57940.9 0.0347420
57944.5 0.0357080
57948.1 0.0367140
57951.7 0.0377630
57955.3 0.0388580
57958.9 0.0400010
57962.5 0.0411940
57966.1 0.0424410
57969.7 0.0437430
57971.5 0.0444160
57973.3 0.0451040
57976.9 0.0465280
57980.4 0.0480170
57984.0 0.0495750
57987.6 0.0512060
57991.2 0.0529150
57994.8 0.0547040
57998.4 0.0565790
58002.0 0.0585430
58005.6 0.0606030
58009.2 0.0627630
58012.8 0.0650280
58016.4 0.0674030
58019.9 0.0698950
58023.5 0.0725080
58027.1 0.0752500
58030.7 0.0781250
58034.3 0.0811390
58037.9 0.0843000
58041.5 0.0876110
58045.1 0.0910800
58048.7 0.0947100
58052.3 0.0985060
58055.9 0.102470
58059.5 0.106610
58063.0 0.110930
58066.6 0.115420
58070.2 0.120080
58073.8 0.124910
58077.4 0.129900
58081.0 0.135050
58084.6 0.140330
58088.2 0.145740
58091.8 0.151240
58095.4 0.156810
58099.0 0.162430
58102.5 0.168040
58106.1 0.173610
58109.7 0.179090
58113.3 0.184410
58115.1 0.187000
58116.9 0.189530
58118.7 0.191990
58120.5 0.194380
58122.3 0.196680
58124.1 0.198880
58125.9 0.200990
58127.7 0.202990
58129.5 0.204870
58131.3 0.206630
58133.1 0.208250
58134.9 0.209740
58136.7 0.211080
58138.5 0.212270
58140.2 0.213300
58142.0 0.214170
58143.8 0.214870
58145.6 0.215400
58147.4 0.215760
58149.2 0.215950
58150.1 0.215980
58151.0 0.215960
58152.8 0.215800
58154.6 0.215460
58156.4 0.214950
58158.2 0.214270
58158.4 0.214200
58158.6 0.214120
58158.7 0.214040
58158.9 0.213950
58159.1 0.213870
58159.3 0.213790
58159.5 0.213700
58159.6 0.213610
58159.8 0.213520
58160.0 0.213430
58160.2 0.213330
58160.4 0.213240
58160.5 0.213140
58160.7 0.213040
58160.9 0.212940
58161.1 0.212840
58161.3 0.212740
58161.4 0.212630
58161.6 0.212530
58161.8 0.212420
58163.6 0.211250
58165.4 0.209930
58167.2 0.208460
58169.0 0.206850
58170.8 0.205110
58172.6 0.203250
58174.4 0.201260
58176.2 0.199170
58178.0 0.196970
58179.8 0.194680
58181.5 0.192300
58183.3 0.189850
58185.1 0.187320
58186.9 0.184740
58188.7 0.182100
58190.5 0.179420
58192.3 0.176690
58193.2 0.175320
58194.1 0.173940
58195.9 0.171160
58197.7 0.168360
58199.5 0.165560
58201.3 0.162740
58203.1 0.159930
58204.9 0.157120
58206.7 0.154320
58210.3 0.148760
58213.9 0.143280
58217.5 0.137910
58221.0 0.132680
58224.6 0.127580
58228.2 0.122650
58231.8 0.117880
58235.4 0.113280
58239.0 0.108850
58242.6 0.104600
58246.2 0.100530
58249.8 0.0966230
58253.4 0.0928890
58257.0 0.0893200
58260.5 0.0859100
58264.1 0.0826550
58267.7 0.0795500
58271.3 0.0765870
58274.9 0.0737620
58278.5 0.0710680
58282.1 0.0685000
58285.7 0.0660510
58289.3 0.0637170
58292.9 0.0614900
58296.5 0.0593670
58300.1 0.0573420
58303.6 0.0554090
58307.2 0.0535650
58310.8 0.0518040
58314.4 0.0501230
58318.0 0.0485170
58321.6 0.0469820
58325.2 0.0455150
58328.8 0.0441130
58332.4 0.0427710
58336.0 0.0414860
58339.6 0.0402570
58343.1 0.0390800
58346.7 0.0379510
58350.3 0.0368700
58353.9 0.0358330
58357.5 0.0348390
58361.1 0.0338840
58364.7 0.0329680
58368.3 0.0320880
58371.9 0.0312420
58375.5 0.0304300
58379.1 0.0296480
58382.6 0.0288970
58386.2 0.0281730
58389.8 0.0274770
58393.4 0.0268060
58397.0 0.0261600
58400.6 0.0255380
58404.2 0.0249370
58407.8 0.0243580
58411.4 0.0238000
58415.0 0.0232610
58418.6 0.0227400
58422.1 0.0222380
58425.7 0.0217520
58429.3 0.0212830
58432.9 0.0208290
58436.5 0.0203900
58440.1 0.0199660
58443.7 0.0195550
58447.3 0.0191570
58450.9 0.0187720
58454.5 0.0183990
58458.1 0.0180380
58461.6 0.0176880
58465.2 0.0173490
58468.8 0.0170190
58472.4 0.0167000
58476.0 0.0163900
58479.6 0.0160900
58483.2 0.0157980
58486.8 0.0155140
58490.4 0.0152390
58494.0 0.0149720
58497.6 0.0147120
58501.1 0.0144590
58504.7 0.0142140
58508.3 0.0139750
58511.9 0.0137430
58515.5 0.0135170
58519.1 0.0132970
58522.7 0.0130820
58529.9 0.0126710
58537.1 0.0122810
58544.2 0.0119100
58551.4 0.0115580
58558.6 0.0112230
58562.2 0.0110620
58565.8 0.0109040
58573.0 0.0106000
58581.9 0.0102410
58590.9 0.00990140
58599.9 0.00958120
58608.9 0.00927860
58626.8 0.00872150
58644.8 0.00822110
58662.7 0.00777020
58680.7 0.00736240
58698.6 0.00699240
58716.6 0.00665580
58734.6 0.00634870
58752.5 0.00606780
58770.5 0.00581020
58788.4 0.00557340
58806.4 0.00535520
58824.3 0.00515390
58842.3 0.00496760
58860.2 0.00479500
58878.2 0.00463480
58896.2 0.00448580
58914.1 0.00434700
58932.1 0.00421760
58950.0 0.00409660
58985.9 0.00387760
59021.8 0.00368510
59057.8 0.00351500
59093.7 0.00336410
59129.6 0.00322980
59165.5 0.00310990
59201.4 0.00300250
59237.3 0.00290610
59273.2 0.00281930
59309.1 0.00274110
59327.1 0.00270490
59380.9 0.00260650
59416.9 0.00254870
59461.7 0.00248400
59506.6 0.00242680
59551.5 0.00237630
59596.4 0.00233170
59638.4 0.00229470
59701.3 0.00224710
59764.2 0.00220770
59831.5 0.00217350
59898.8 0.00214660
59966.1 0.00212610
60033.4 0.00211130
60100.6 0.00210180
60167.9 0.00209710
60201.5 0.00209650
60302.5 0.00210080
60410.1 0.00211530
60490.8 0.00213230
60571.6 0.00215450
60625.4 0.00217200
60733.0 0.00221370
60840.7 0.00226430
60948.3 0.00232390
61056.0 0.00239290
61163.6 0.00247180
61271.3 0.00256130
61378.9 0.00266240
61486.5 0.00277630
61594.2 0.00290420
61701.8 0.00304810
61809.5 0.00321010
61917.1 0.00339300
62024.8 0.00359990
62078.6 0.00371370
62132.4 0.00383520
62186.2 0.00396510
62240.1 0.00410410
62293.9 0.00425310
62347.7 0.00441330
62401.5 0.00458560
62455.3 0.00477140
62509.2 0.00497230
62563.0 0.00518990
62616.8 0.00542640
62670.6 0.00568410
62724.4 0.00596560
62751.4 0.00611640
62778.3 0.00627440
62805.2 0.00644020
62832.1 0.00661430
62853.6 0.00675990
62864.4 0.00683500
62875.2 0.00691160
62896.7 0.00706970
62918.2 0.00723450
62939.7 0.00740650
62961.3 0.00758620
62982.8 0.00777400
62993.6 0.00787120
63004.3 0.00797050
63015.1 0.00807220
63025.9 0.00817620
63036.6 0.00828270
63047.4 0.00839180
63058.1 0.00850350
63068.9 0.00861790
63079.7 0.00873510
63090.4 0.00885530
63101.2 0.00897850
63112.0 0.00910480
63122.7 0.00923430
63133.5 0.00936720
63144.3 0.00950360
63155.0 0.00964350
63165.8 0.00978730
63176.6 0.00993490
63187.3 0.0100870
63198.1 0.0102420
63208.8 0.0104030
63219.6 0.0105670
63230.4 0.0107370
63241.1 0.0109110
63251.9 0.0110900
63262.7 0.0112750
63273.4 0.0114650
63284.2 0.0116610
63295.0 0.0118630
63305.7 0.0120710
63316.5 0.0122860
63327.3 0.0125070
63338.0 0.0127360
63348.8 0.0129720
63359.6 0.0132150
63370.3 0.0134670
63381.1 0.0137270
63391.8 0.0139960
63402.6 0.0142750
63413.4 0.0145630
63424.1 0.0148610
63434.9 0.0151700
63445.7 0.0154900
63456.4 0.0158220
63467.2 0.0161660
63478.0 0.0165230
63488.7 0.0168940
63499.5 0.0172790
63510.2 0.0176790
63521.0 0.0180950
63531.8 0.0185270
63542.5 0.0189780
63553.3 0.0194460
63564.1 0.0199350
63574.8 0.0204440
63585.6 0.0209750
63596.4 0.0215290
63607.1 0.0221070
63617.9 0.0227110
63628.7 0.0233420
63639.4 0.0240030
63650.2 0.0246940
63661.0 0.0254170
63671.7 0.0261750
63682.5 0.0269690
63693.2 0.0278020
63704.0 0.0286770
63714.8 0.0295950
63725.5 0.0305590
63736.3 0.0315730
63747.1 0.0326390
63757.8 0.0337610
63768.6 0.0349420
63779.4 0.0361860
63790.1 0.0374980
63800.9 0.0388800
63811.7 0.0403380
63822.4 0.0418760
63833.2 0.0434990
63843.9 0.0452120
63854.7 0.0470200
63865.5 0.0489290
63876.2 0.0509440
63887.0 0.0530700
63897.8 0.0553140
63908.5 0.0576800
63919.3 0.0601720
63930.1 0.0627970
63935.4 0.0641590
63940.8 0.0655560
63946.2 0.0669870
63951.6 0.0684530
63957.0 0.0699530
63962.4 0.0714890
63967.7 0.0730590
63973.1 0.0746640
63978.5 0.0763020
63983.9 0.0779740
63989.3 0.0796790
63994.6 0.0814160
64000.0 0.0831840
64005.4 0.0849810
64010.8 0.0868060
64016.2 0.0886560
64021.6 0.0905300
64026.9 0.0924250
64032.3 0.0943380
64037.7 0.0962670
64043.1 0.0982070
64048.5 0.100150
64053.9 0.102100
64059.2 0.104050
64064.6 0.106000
64065.2 0.106190
64065.7 0.106380
64066.2 0.106580
64066.8 0.106770
64067.3 0.106960
64067.8 0.107160
64068.4 0.107350
64068.9 0.107540
64069.5 0.107730
64070.0 0.107930
64070.5 0.108120
64071.1 0.108310
64071.6 0.108500
64072.2 0.108690
64072.7 0.108890
64073.2 0.109080
64073.8 0.109270
64074.3 0.109460
64074.8 0.109650
64075.4 0.109840
64080.8 0.111730
64086.1 0.113590
64091.5 0.115410
64096.9 0.117190
64102.3 0.118910
64107.7 0.120580
64113.1 0.122180
64118.4 0.123700
64123.8 0.125140
64129.2 0.126500
64134.6 0.127760
64140.0 0.128910
64145.4 0.129960
64150.7 0.130880
64153.4 0.131300
64154.8 0.131500
64156.1 0.131690
64161.5 0.132370
64166.9 0.132920
64172.3 0.133340
64177.6 0.133620
64183.0 0.133760
64185.7 0.133780
64188.4 0.133770
64193.8 0.133630
64199.2 0.133360
64204.6 0.132950
64209.9 0.132410
64220.7 0.130950
64231.5 0.129010
64242.2 0.126650
64253.0 0.123910
64263.8 0.120860
64274.5 0.117550
64285.3 0.114050
64296.1 0.110410
64306.8 0.106680
64317.6 0.102920
64328.3 0.0991630
64339.1 0.0954420
64349.9 0.0917870
64360.6 0.0882220
64371.4 0.0847650
64382.2 0.0814280
64392.9 0.0782220
64403.7 0.0751530
64414.5 0.0722230
64425.2 0.0694340
64436.0 0.0667850
64446.8 0.0642730
64457.5 0.0618950
64468.3 0.0596470
64479.0 0.0575240
64489.8 0.0555210
64500.6 0.0536330
64511.3 0.0518540
64522.1 0.0501780
64532.9 0.0486010
64543.6 0.0471170
64554.4 0.0457210
64561.2 0.0448850
64570.2 0.0438220
64579.2 0.0428120
64593.5 0.0413090
64607.9 0.0399250
64622.2 0.0386520
64636.6 0.0374800
64650.9 0.0364030
64665.3 0.0354130
64679.6 0.0345030
64693.9 0.0336680
64708.3 0.0329030
64722.6 0.0322010
64737.0 0.0315600
64751.3 0.0309750
64765.7 0.0304420
64780.0 0.0299570
64794.3 0.0295190
64797.9 0.0294160
64808.7 0.0291220
64823.0 0.0287660
64837.4 0.0284470
64851.7 0.0281640
64866.0 0.0279140
64880.4 0.0276960
64894.7 0.0275080
64909.1 0.0273480
64923.4 0.0272150
64937.8 0.0271070
64952.1 0.0270240
64966.4 0.0269640
64980.8 0.0269260
64995.1 0.0269100
64998.7 0.0269090
65009.5 0.0269130
65023.8 0.0269360
65038.2 0.0269780
65066.8 0.0271150
65095.5 0.0273180
65124.2 0.0275830
65152.9 0.0279040
65181.6 0.0282790
65210.3 0.0287020
65238.9 0.0291700
65267.6 0.0296780
65296.3 0.0302230
65325.0 0.0308000
65353.7 0.0314040
65382.4 0.0320310
65411.1 0.0326740
65439.7 0.0333280
65468.4 0.0339860
65497.1 0.0346420
65511.4 0.0349670
65525.8 0.0352880
65540.1 0.0356050
65554.5 0.0359170
65568.8 0.0362230
65583.2 0.0365210
65597.5 0.0368110
65611.8 0.0370920
65626.2 0.0373620
65640.5 0.0376210
65654.9 0.0378670
65669.2 0.0381010
65683.6 0.0383200
65697.9 0.0385240
65712.2 0.0387120
65726.6 0.0388830
65740.9 0.0390370
65755.3 0.0391720
65769.6 0.0392880
65783.9 0.0393850
65798.3 0.0394620
65812.6 0.0395180
65827.0 0.0395530
65841.3 0.0395680
65855.7 0.0395610
65857.1 0.0395590
65858.5 0.0395570
65860.0 0.0395550
65861.4 0.0395520
65862.8 0.0395490
65864.3 0.0395470
65865.7 0.0395430
65867.1 0.0395400
65868.6 0.0395360
65870.0 0.0395330
65871.4 0.0395290
65872.9 0.0395240
65874.3 0.0395200
65875.7 0.0395150
65877.2 0.0395110
65878.6 0.0395050
65880.0 0.0395000
65881.5 0.0394950
65882.9 0.0394890
65884.3 0.0394830
65898.7 0.0394120
65913.0 0.0393200
65927.4 0.0392080
65941.7 0.0390740
65956.1 0.0389210
65970.4 0.0387480
65984.7 0.0385560
65999.1 0.0383460
66013.4 0.0381180
66027.8 0.0378730
66042.1 0.0376120
66056.4 0.0373360
66070.8 0.0370450
66085.1 0.0367400
66099.5 0.0364230
66113.8 0.0360940
66128.2 0.0357550
66135.3 0.0355810
66142.5 0.0354050
66156.8 0.0350470
66171.2 0.0346800
66185.5 0.0343070
66199.9 0.0339270
66214.2 0.0335420
66228.6 0.0331530
66242.9 0.0327600
66271.6 0.0319660
66300.3 0.0311670
66329.0 0.0303680
66357.6 0.0295740
66386.3 0.0287900
66415.0 0.0280180
66443.7 0.0272630
66472.4 0.0265280
66501.1 0.0258130
66529.7 0.0251220
66558.4 0.0244550
66587.1 0.0238140
66615.8 0.0232000
66644.5 0.0226130
66673.2 0.0220530
66701.8 0.0215210
66730.5 0.0210170
66759.2 0.0205400
66787.9 0.0200910
66816.6 0.0196690
66845.3 0.0192740
66874.0 0.0189050
66902.6 0.0185630
66931.3 0.0182470
66960.0 0.0179570
66988.7 0.0176920
67017.4 0.0174520
67046.1 0.0172380
67074.7 0.0170480
67103.4 0.0168830
67132.1 0.0167420
67160.8 0.0166260
67189.5 0.0165350
67218.2 0.0164700
67246.9 0.0164290
67275.5 0.0164140
67304.2 0.0164250
67332.9 0.0164630
67361.6 0.0165280
67390.3 0.0166210
67419.0 0.0167430
67447.6 0.0168950
67476.3 0.0170780
67505.0 0.0172940
67509.8 0.0173340
67513.5 0.0173640
67535.5 0.0175610
67557.6 0.0177800
67579.6 0.0180200
67601.6 0.0182830
67623.7 0.0185700
67645.7 0.0188820
67667.8 0.0192200
67689.8 0.0195850
67711.9 0.0199790
67733.9 0.0204020
67756.0 0.0208570
67778.0 0.0213450
67800.0 0.0218670
67822.1 0.0224260
67844.1 0.0230220
67866.2 0.0236570
67888.2 0.0243340
67910.3 0.0250530
67932.3 0.0258180
67954.4 0.0266290
67976.4 0.0274880
67998.4 0.0283970
68020.5 0.0293560
68031.5 0.0298560
68042.5 0.0303680
68053.6 0.0308940
68064.6 0.0314330
68075.6 0.0319850
68086.6 0.0325500
68097.6 0.0331290
68108.7 0.0337210
68109.0 0.0337369
68119.7 0.0343250
68130.7 0.0349420
68141.7 0.0355720
68152.8 0.0362130
68163.8 0.0368670
68174.8 0.0375310
68185.8 0.0382060
68196.8 0.0388920
68207.9 0.0395860
68218.9 0.0402890
68229.9 0.0409990
68240.9 0.0417160
68252.0 0.0424370
68263.0 0.0431630
68274.0 0.0438920
68285.0 0.0446210
68296.0 0.0453500
68307.1 0.0460770
68318.1 0.0467990
68329.1 0.0475150
68340.1 0.0482230
68351.2 0.0489200
68362.2 0.0496040
68373.2 0.0502730
68384.2 0.0509230
68395.2 0.0515540
68406.3 0.0521610
68417.3 0.0527430
68439.3 0.0538200
68461.4 0.0547640
68483.4 0.0555540
68494.4 0.0558870
68505.5 0.0561750
68516.5 0.0564180
68527.5 0.0566120
68538.5 0.0567580
68549.6 0.0568540
68560.6 0.0569000
68566.1 0.0569030
68571.6 0.0568940
68582.6 0.0568380
68593.6 0.0567300
68604.7 0.0565730
68615.7 0.0563660
68626.7 0.0561100
68637.7 0.0558070
68648.8 0.0554580
68659.8 0.0550650
68670.8 0.0546290
68681.8 0.0541540
68692.8 0.0536410
68703.9 0.0530930
68714.9 0.0525120
68725.9 0.0519010
68736.9 0.0512620
68748.0 0.0505980
68759.0 0.0499120
68760.1 0.0498420
68761.2 0.0497720
68762.3 0.0497020
68763.4 0.0496310
68764.5 0.0495610
68765.6 0.0494900
68766.7 0.0494190
68767.8 0.0493480
68768.9 0.0492770
68770.0 0.0492050
68771.1 0.0491340
68772.2 0.0490620
68773.3 0.0489900
68774.4 0.0489180
68775.5 0.0488450
68776.6 0.0487730
68777.7 0.0487000
68778.8 0.0486270
68779.9 0.0485550
68781.0 0.0484810
68792.0 0.0477430
68803.1 0.0469920
68814.1 0.0462310
68825.1 0.0454610
68836.1 0.0446860
68847.2 0.0439070
68858.2 0.0431260
68869.2 0.0423450
68880.2 0.0415650
68891.2 0.0407880
68902.3 0.0400150
68913.3 0.0392470
68924.3 0.0384870
68935.3 0.0377330
68946.4 0.0369880
68957.4 0.0362530
68968.4 0.0355270
68979.4 0.0348120
68990.4 0.0341090
69001.5 0.0334160
69012.5 0.0327360
69023.5 0.0320680
69034.5 0.0314130
69045.6 0.0307710
69056.6 0.0301410
69078.6 0.0289210
69100.7 0.0277520
69122.7 0.0266350
69144.8 0.0255690
69166.8 0.0245530
69188.8 0.0235850
69210.9 0.0226630
69232.9 0.0217860
69255.0 0.0209510
69277.0 0.0201580
69299.1 0.0194040
69321.1 0.0186870
69343.2 0.0180050
69365.2 0.0173570
69387.2 0.0167410
69409.3 0.0161550
69431.3 0.0155970
69453.4 0.0150660
69475.4 0.0145600
69497.5 0.0140790
69519.5 0.0136200
69541.6 0.0131830
69563.6 0.0127660
69585.6 0.0123680
69607.7 0.0119880
69629.7 0.0116250
69651.8 0.0112780
69673.8 0.0109470
69695.9 0.0106300
69717.9 0.0103270
69740.0 0.0100360
69762.0 0.00975800
69784.0 0.00949150
69806.1 0.00923590
69828.1 0.00899080
69850.2 0.00875550
69872.2 0.00852960
69894.3 0.00831250
69916.3 0.00810400
69938.4 0.00790340
69960.4 0.00771050
69982.4 0.00752480
70000.0 0.00738188
70000.0 0.0400000
70000.0 0.0400000
72500.0 0.0392833
75000.0 0.0385667
85000.0 0.0357000
95000.0 0.0328333
99999.9 0.0314000
100000 0.0314000
105000 0.0306750
115000 0.0292250
125000 0.0277750
135000 0.0263250
145000 0.0248750
155000 0.0234250
165000 0.0219750
175000 0.0205250
185000 0.0190750
195000 0.0176250
200000 0.0169000
205000 0.0166000
215000 0.0160000
225000 0.0154000
235000 0.0148000
245000 0.0142000
250000 0.0139000
250000 0.0139000
255000 0.0136000
265000 0.0130000
275000 0.0124000
285000 0.0118000
287680 0.0116392
287685 0.0116389
295000 0.0112000
300000 0.0109000
305000 0.0107350
315000 0.0104050
325000 0.0100750
335000 0.00974500
345000 0.00941500
355000 0.00908500
365000 0.00875500
375000 0.00842500
385000 0.00809500
395000 0.00776500
400000 0.00760000
405000 0.00755250
415000 0.00745750
425000 0.00736250
435000 0.00726750
445000 0.00717250
455000 0.00707750
465000 0.00698250
475000 0.00688750
485000 0.00679250
495000 0.00669750
500000 0.00665000
500000 0.00665000
505000 0.00662200
515000 0.00656600
525000 0.00651000
548630 0.00637767
548634 0.00637765
600000 0.00609000
600226 0.00608794
600867 0.00608211
601269 0.00607845
601571 0.00607570
602074 0.00607113
602175 0.00607021
602276 0.00606929
602730 0.00606516
602831 0.00606424
603538 0.00605780
603741 0.00605596
603943 0.00605412
604196 0.00605182
604450 0.00604951
604551 0.00604859
604754 0.00604674
604956 0.00604490
605363 0.00604120
605769 0.00603750
606024 0.00603518
606533 0.00603055
606787 0.00602824
606940 0.00602685
607298 0.00602359
607553 0.00602127
607706 0.00601988
607808 0.00601895
607961 0.00601756
608217 0.00601523
608422 0.00601336
608678 0.00601103
608883 0.00600917
609396 0.00600450
609601 0.00600263
609652 0.00600217
609909 0.00599983
610166 0.00599749
610320 0.00599609
610680 0.00599281
610989 0.00599000
611093 0.00598905
611402 0.00598624
611723 0.00598332
612497 0.00597628
612731 0.00597415
613584 0.00596639
614051 0.00596214
614440 0.00595860
614830 0.00595505
615220 0.00595150
615533 0.00594865
615924 0.00594509
616240 0.00594222
616501 0.00593984
616709 0.00593795
617023 0.00593509
617128 0.00593414
617389 0.00593176
617756 0.00592842
618070 0.00592556
618174 0.00592462
618479 0.00592184
618792 0.00591899
619108 0.00591612
619424 0.00591324
619660 0.00591109
619892 0.00590898
620445 0.00590395
620608 0.00590247
620713 0.00590151
620924 0.00589959
621135 0.00589767
621663 0.00589287
621822 0.00589142
622140 0.00588853
622457 0.00588564
622669 0.00588371
623040 0.00588034
623624 0.00587502
623943 0.00587212
624156 0.00587018
624581 0.00586631
624847 0.00586389
625167 0.00586098
625434 0.00585855
625700 0.00585613
625860 0.00585467
626021 0.00585321
626395 0.00584981
626930 0.00584494
627091 0.00584347
627252 0.00584201
627412 0.00584055
627680 0.00583811
628056 0.00583469
628432 0.00583127
628647 0.00582931
629077 0.00582540
629292 0.00582344
629670 0.00582000
629993 0.00581706
630101 0.00581608
630424 0.00581314
630694 0.00581068
630856 0.00580921
631073 0.00580724
631776 0.00580084
631993 0.00579886
632209 0.00579690
632318 0.00579591
632660 0.00579279
632905 0.00579056
632986 0.00578983
633122 0.00578859
633231 0.00578760
633421 0.00578587
633808 0.00578235
633917 0.00578136
634353 0.00577739
634540 0.00577569
635101 0.00577058
635917 0.00576316
636082 0.00576165
636355 0.00575917
636793 0.00575518
637232 0.00575119
637451 0.00574920
637780 0.00574620
638126 0.00574305
638436 0.00574023
639014 0.00573497
639428 0.00573121
639978 0.00572620
640255 0.00572368
640365 0.00572268
640531 0.00572117
640697 0.00571966
640974 0.00571714
641085 0.00571613
641583 0.00571159
641805 0.00570958
641921 0.00570852
642586 0.00570247
642809 0.00570044
642920 0.00569943
643199 0.00569689
643477 0.00569436
643755 0.00569183
644089 0.00568879
644312 0.00568676
644480 0.00568523
644703 0.00568320
644982 0.00568066
645206 0.00567862
645373 0.00567711
645765 0.00567354
646045 0.00567099
646213 0.00566946
646381 0.00566793
646676 0.00566525
647665 0.00565625
648171 0.00565164
648425 0.00564933
648762 0.00564627
648931 0.00564473
649184 0.00564243
649845 0.00563641
650297 0.00563230
650410 0.00563127
650750 0.00562817
650864 0.00562714
651033 0.00562560
651146 0.00562457
651657 0.00561992
651770 0.00561889
652290 0.00561416
652717 0.00561027
652973 0.00560795
653400 0.00560406
653742 0.00560095
654067 0.00559799
654202 0.00559676
654659 0.00559260
654944 0.00559001
655116 0.00558844
655173 0.00558793
655345 0.00558636
655631 0.00558376
655975 0.00558063
656205 0.00557854
656376 0.00557698
656917 0.00557206
657423 0.00556745
658026 0.00556196
658460 0.00555801
658860 0.00555437
659091 0.00555227
659322 0.00555017
659668 0.00554702
659784 0.00554597
660131 0.00554281
660420 0.00554018
660652 0.00553807
660941 0.00553544
661057 0.00553438
661231 0.00553280
661463 0.00553069
661695 0.00552858
661997 0.00552583
663279 0.00551416
663542 0.00551177
663892 0.00550858
664155 0.00550619
664858 0.00549979
665209 0.00549660
665559 0.00549341
665736 0.00549180
665917 0.00549015
666327 0.00548642
666620 0.00548376
666797 0.00548215
666860 0.00548158
666860 0.00548157
667031 0.00548002
667208 0.00547841
667973 0.00547145
668326 0.00546823
668503 0.00546662
668680 0.00546501
669034 0.00546179
669388 0.00545857
669565 0.00545696
670039 0.00545265
670512 0.00544834
670867 0.00544511
671223 0.00544187
671401 0.00544025
671816 0.00543647
671995 0.00543485
672233 0.00543268
672470 0.00543052
672946 0.00542619
673363 0.00542240
673542 0.00542077
673780 0.00541860
673960 0.00541696
674198 0.00541480
674437 0.00541262
674556 0.00541154
675095 0.00540664
675214 0.00540555
675694 0.00540119
675813 0.00540010
676653 0.00539246
676893 0.00539027
677554 0.00538426
677674 0.00538317
677915 0.00538097
678156 0.00537878
678337 0.00537713
678639 0.00537439
678880 0.00537219
679242 0.00536890
679846 0.00536340
680390 0.00535845
680753 0.00535515
681178 0.00535128
681785 0.00534576
682149 0.00534244
682547 0.00533882
683000 0.00533470
683822 0.00532722
684611 0.00532004
684981 0.00531667
685348 0.00531333
685531 0.00531167
685898 0.00530833
686389 0.00530386
686757 0.00530051
686880 0.00529939
687065 0.00529771
687249 0.00529603
687556 0.00529324
688884 0.00528116
689438 0.00527611
689663 0.00527407
689911 0.00527181
690163 0.00526952
690287 0.00526839
690906 0.00526276
691216 0.00525993
691340 0.00525881
691650 0.00525598
692022 0.00525260
692332 0.00524978
692519 0.00524808
692954 0.00524412
693328 0.00524072
693577 0.00523845
693639 0.00523789
693950 0.00523506
694325 0.00523164
694575 0.00522937
694949 0.00522596
695200 0.00522368
695450 0.00522140
695825 0.00521799
696095 0.00521554
696220 0.00521440
696314 0.00521354
696439 0.00521240
696662 0.00521038
696976 0.00520752
697416 0.00520351
697981 0.00519837
698233 0.00519608
698547 0.00519322
698736 0.00519150
698862 0.00519036
699051 0.00518864
699556 0.00518404
699935 0.00518059
700000 0.00518000
700567 0.00517626
701516 0.00516999
701707 0.00516873
701897 0.00516748
702087 0.00516623
702341 0.00516455
702722 0.00516203
703103 0.00515952
703230 0.00515868
703485 0.00515700
703803 0.00515490
703867 0.00515448
704249 0.00515196
704441 0.00515069
704759 0.00514859
705014 0.00514691
705270 0.00514522
705525 0.00514353
705717 0.00514227
705845 0.00514142
706102 0.00513973
706357 0.00513804
706485 0.00513720
706998 0.00513381
707191 0.00513254
707319 0.00513169
707639 0.00512958
707961 0.00512746
708282 0.00512534
708603 0.00512322
708797 0.00512194
709376 0.00511812
709570 0.00511684
710150 0.00511301
710537 0.00511046
710926 0.00510789
711055 0.00510704
711378 0.00510491
711637 0.00510320
711960 0.00510106
712479 0.00509764
712869 0.00509506
713454 0.00509120
713714 0.00508949
713980 0.00508773
714240 0.00508602
714566 0.00508386
714956 0.00508129
715283 0.00507913
715414 0.00507827
715739 0.00507612
715935 0.00507483
716540 0.00507084
717032 0.00506759
717720 0.00506305
718114 0.00506045
718704 0.00505655
719297 0.00505264
719790 0.00504939
720574 0.00504421
720838 0.00504247
721300 0.00503942
721697 0.00503680
723012 0.00502812
723411 0.00502549
723709 0.00502352
724706 0.00501694
725506 0.00501166
726106 0.00500770
726607 0.00500439
727309 0.00499976
728289 0.00499329
728557 0.00499152
728759 0.00499019
729094 0.00498798
729431 0.00498576
729632 0.00498443
729901 0.00498265
730035 0.00498177
730237 0.00498044
730507 0.00497865
730776 0.00497688
730978 0.00497555
731653 0.00497109
731855 0.00496976
732193 0.00496753
732599 0.00496485
732937 0.00496262
733140 0.00496128
733479 0.00495904
733615 0.00495814
733954 0.00495590
734224 0.00495412
734428 0.00495278
734836 0.00495008
735175 0.00494785
735720 0.00494425
736265 0.00494065
736810 0.00493705
737015 0.00493570
737424 0.00493300
737560 0.00493210
737902 0.00492985
738176 0.00492804
738518 0.00492578
738792 0.00492397
739134 0.00492172
739477 0.00491945
739614 0.00491855
739820 0.00491719
740233 0.00491446
740644 0.00491175
740988 0.00490948
741264 0.00490766
741471 0.00490629
741677 0.00490493
742159 0.00490175
742573 0.00489902
742925 0.00489670
743547 0.00489259
743962 0.00488985
744794 0.00488436
745209 0.00488162
745695 0.00487841
745834 0.00487750
745973 0.00487658
746460 0.00487336
746599 0.00487245
746947 0.00487015
747225 0.00486832
747434 0.00486694
747923 0.00486371
748132 0.00486233
748341 0.00486095
748830 0.00485772
749250 0.00485495
749530 0.00485310
749810 0.00485125
749950 0.00485033
750000 0.00485000
750000 0.00485000
750300 0.00484802
750511 0.00484663
750721 0.00484524
751002 0.00484339
751142 0.00484246
751564 0.00483968
751915 0.00483736
752056 0.00483643
752267 0.00483504
752548 0.00483318
752830 0.00483132
752971 0.00483039
753112 0.00482946
753323 0.00482807
753606 0.00482620
754241 0.00482201
754383 0.00482107
755639 0.00481278
756277 0.00480857
757662 0.00479943
759265 0.00478885
759479 0.00478744
759686 0.00478607
759865 0.00478489
760154 0.00478298
760655 0.00477968
761013 0.00477731
761370 0.00477496
761729 0.00477259
762159 0.00476975
762446 0.00476786
762662 0.00476643
762878 0.00476501
763380 0.00476169
763884 0.00475837
764317 0.00475551
764677 0.00475313
765037 0.00475076
765832 0.00474551
766194 0.00474312
766484 0.00474121
766991 0.00473786
767425 0.00473500
767933 0.00473164
768369 0.00472876
768586 0.00472733
769096 0.00472397
769460 0.00472156
769829 0.00471913
770663 0.00471362
771320 0.00470929
772088 0.00470422
772746 0.00469988
773516 0.00469480
773981 0.00469173
774208 0.00469023
774502 0.00468829
774943 0.00468538
775238 0.00468343
775827 0.00467954
776122 0.00467760
776565 0.00467467
776934 0.00467224
777229 0.00467029
777673 0.00466736
777896 0.00466589
778487 0.00466199
778635 0.00466101
779228 0.00465710
779451 0.00465562
780120 0.00465121
780566 0.00464826
780715 0.00464728
781161 0.00464434
781682 0.00464090
781831 0.00463992
782279 0.00463696
782876 0.00463302
783176 0.00463104
783475 0.00462907
783550 0.00462857
783849 0.00462660
784223 0.00462413
784598 0.00462165
784973 0.00461918
785198 0.00461769
785648 0.00461472
786025 0.00461224
786250 0.00461075
786475 0.00460927
787002 0.00460579
787379 0.00460330
788661 0.00459484
790024 0.00458584
790478 0.00458285
791085 0.00457884
791312 0.00457734
791540 0.00457584
791616 0.00457533
791844 0.00457383
791996 0.00457283
792224 0.00457132
792604 0.00456881
792909 0.00456680
793214 0.00456479
793366 0.00456378
793595 0.00456227
793747 0.00456127
794129 0.00455875
794587 0.00455573
795046 0.00455270
796424 0.00454360
796885 0.00454056
797268 0.00453803
797652 0.00453550
798267 0.00453144
798498 0.00452991
798805 0.00452789
799731 0.00452178
800000 0.00452000
800000 0.00452000
800116 0.00451995
800657 0.00451974
800812 0.00451968
801044 0.00451958
801276 0.00451949
801508 0.00451940
802057 0.00451918
802755 0.00451890
803298 0.00451868
803764 0.00451849
804153 0.00451834
804464 0.00451821
805009 0.00451800
805243 0.00451790
805399 0.00451784
805867 0.00451765
806335 0.00451747
806882 0.00451725
807351 0.00451706
807586 0.00451697
808056 0.00451678
808291 0.00451668
808684 0.00451653
809076 0.00451637
809312 0.00451628
809704 0.00451612
809994 0.00451600
810292 0.00451588
810871 0.00451565
811579 0.00451537
812170 0.00451513
812533 0.00451499
812692 0.00451492
813087 0.00451477
813562 0.00451458
814036 0.00451439
814274 0.00451429
814512 0.00451420
814750 0.00451410
814909 0.00451404
815306 0.00451388
815704 0.00451372
816259 0.00451350
816498 0.00451340
817453 0.00451302
818172 0.00451273
818412 0.00451264
818811 0.00451248
819131 0.00451235
819291 0.00451228
819611 0.00451216
820011 0.00451200
820813 0.00451168
821455 0.00451142
821856 0.00451126
822499 0.00451100
822580 0.00451097
822983 0.00451081
823224 0.00451071
823466 0.00451061
823950 0.00451042
824434 0.00451023
824757 0.00451010
824919 0.00451003
825081 0.00450997
825242 0.00450990
825727 0.00450971
826052 0.00450958
826456 0.00450942
827024 0.00450919
827673 0.00450893
828323 0.00450867
828892 0.00450844
829219 0.00450831
829464 0.00450821
829789 0.00450808
830360 0.00450786
830850 0.00450766
831259 0.00450750
831586 0.00450737
832077 0.00450717
832404 0.00450704
832649 0.00450694
833060 0.00450678
833388 0.00450665
833635 0.00450655
833881 0.00450645
834867 0.00450605
835279 0.00450589
835443 0.00450582
835773 0.00450569
836102 0.00450556
836350 0.00450546
836763 0.00450530
837259 0.00450510
837507 0.00450500
837837 0.00450487
838110 0.00450476
838441 0.00450462
838607 0.00450456
838790 0.00450448
839252 0.00450430
839751 0.00450410
840165 0.00450393
840415 0.00450383
840581 0.00450377
840830 0.00450367
841246 0.00450350
842246 0.00450310
842534 0.00450299
843035 0.00450279
843285 0.00450269
844121 0.00450235
844456 0.00450222
844790 0.00450208
845294 0.00450188
845545 0.00450178
846384 0.00450145
847056 0.00450118
847477 0.00450101
848403 0.00450064
848981 0.00450041
849108 0.00450036
849319 0.00450027
849530 0.00450019
850245 0.00449990
851007 0.00449960
852194 0.00449912
852618 0.00449895
853043 0.00449878
853893 0.00449844
854234 0.00449831
854574 0.00449817
854830 0.00449807
855256 0.00449790
855769 0.00449769
856110 0.00449756
856709 0.00449732
857393 0.00449704
857736 0.00449691
857908 0.00449684
858337 0.00449667
858937 0.00449643
859109 0.00449636
859796 0.00449608
860571 0.00449577
861260 0.00449550
862468 0.00449501
862901 0.00449484
863940 0.00449442
864546 0.00449418
865414 0.00449383
865761 0.00449370
866572 0.00449337
866834 0.00449327
866921 0.00449323
867051 0.00449318
867138 0.00449315
867635 0.00449295
868071 0.00449277
868595 0.00449256
869644 0.00449214
870257 0.00449190
870958 0.00449162
871221 0.00449151
871660 0.00449134
872011 0.00449120
872274 0.00449109
872626 0.00449095
873066 0.00449077
873330 0.00449067
873857 0.00449046
874122 0.00449035
874484 0.00449021
875013 0.00449000
875278 0.00448989
875896 0.00448964
876250 0.00448950
876781 0.00448929
877047 0.00448918
877579 0.00448897
877845 0.00448886
878200 0.00448872
878466 0.00448861
879622 0.00448815
880334 0.00448787
881226 0.00448751
881315 0.00448747
881583 0.00448737
882120 0.00448715
882298 0.00448708
882655 0.00448694
883103 0.00448676
883477 0.00448661
884031 0.00448639
884300 0.00448628
884659 0.00448614
885108 0.00448596
885647 0.00448574
886277 0.00448549
887177 0.00448513
887809 0.00448488
888080 0.00448477
889254 0.00448430
889972 0.00448401
890199 0.00448392
890425 0.00448383
890742 0.00448370
891060 0.00448358
891151 0.00448354
891832 0.00448327
892469 0.00448301
892742 0.00448290
893379 0.00448265
893652 0.00448254
894108 0.00448236
894655 0.00448214
895751 0.00448170
896118 0.00448155
896484 0.00448141
896667 0.00448133
897217 0.00448111
897401 0.00448104
897859 0.00448086
898043 0.00448078
898409 0.00448064
898593 0.00448056
899605 0.00448016
900000 0.00448000
900000 0.00448000
900527 0.00447684
901356 0.00447187
902004 0.00446798
902683 0.00446390
902821 0.00446307
902960 0.00446224
903423 0.00445946
903761 0.00445743
904410 0.00445354
904882 0.00445071
905346 0.00444792
905718 0.00444569
906649 0.00444011
907114 0.00443732
908047 0.00443172
908421 0.00442948
909449 0.00442331
910667 0.00441600
911416 0.00441150
911980 0.00440812
914428 0.00439343
915938 0.00438437
916412 0.00438153
916980 0.00437812
917453 0.00437528
918497 0.00436902
919162 0.00436503
919923 0.00436046
920018 0.00435989
920399 0.00435761
921066 0.00435360
922021 0.00434787
922690 0.00434386
923933 0.00433640
924048 0.00433571
924050 0.00433570
924221 0.00433467
924989 0.00433007
925181 0.00432891
925469 0.00432719
925661 0.00432603
926142 0.00432315
926622 0.00432027
927778 0.00431333
928067 0.00431160
928743 0.00430754
929709 0.00430175
930192 0.00429885
930677 0.00429594
931161 0.00429303
931840 0.00428896
933006 0.00428196
934465 0.00427321
935440 0.00426736
936124 0.00426326
937495 0.00425503
938474 0.00424916
939159 0.00424505
939651 0.00424209
940242 0.00423855
941029 0.00423383
941727 0.00422964
942417 0.00422550
942813 0.00422312
943899 0.00421661
944394 0.00421364
945088 0.00420947
945583 0.00420650
946477 0.00420114
947073 0.00419756
947869 0.00419279
948965 0.00418621
949663 0.00418202
950362 0.00417783
951163 0.00417302
951664 0.00417002
952165 0.00416701
952566 0.00416460
953469 0.00415919
953971 0.00415617
955279 0.00414833
956488 0.00414107
958004 0.00413198
958308 0.00413015
958611 0.00412833
959625 0.00412225
960132 0.00411921
961067 0.00411360
961270 0.00411238
961372 0.00411177
961979 0.00410813
962469 0.00410519
962775 0.00410335
963387 0.00409968
963693 0.00409784
964408 0.00409355
964920 0.00409048
965226 0.00408864
965942 0.00408435
966659 0.00408005
967069 0.00407759
967583 0.00407450
967788 0.00407327
968610 0.00406834
968816 0.00406710
969433 0.00406340
969742 0.00406155
970567 0.00405660
971083 0.00405350
972117 0.00404730
972633 0.00404420
972944 0.00404234
973669 0.00403799
973876 0.00403674
974084 0.00403550
974914 0.00403052
975225 0.00402865
976161 0.00402303
976890 0.00401866
977411 0.00401553
978642 0.00400815
979105 0.00400537
979475 0.00400315
980117 0.00399930
981478 0.00399113
982214 0.00398672
982739 0.00398357
983678 0.00397793
984046 0.00397572
984204 0.00397478
984901 0.00397059
985956 0.00396426
986695 0.00395983
987753 0.00395348
988283 0.00395030
988601 0.00394839
989451 0.00394329
990620 0.00393628
991151 0.00393309
992110 0.00392734
992857 0.00392286
993604 0.00391838
994353 0.00391388
994781 0.00391131
996066 0.00390360
996603 0.00390038
997569 0.00389459
997891 0.00389265
998107 0.00389136
998430 0.00388942
999292 0.00388425
999722 0.00388167
999938 0.00388037
1.00000E+06 0.00388000
1.00037E+06 0.00387941
1.00123E+06 0.00387803
1.00188E+06 0.00387699
1.00232E+06 0.00387629
1.00286E+06 0.00387542
1.00372E+06 0.00387405
1.00459E+06 0.00387266
1.00525E+06 0.00387160
1.00590E+06 0.00387056
1.00688E+06 0.00386899
1.00731E+06 0.00386830
1.00786E+06 0.00386742
1.00830E+06 0.00386672
1.00906E+06 0.00386550
1.01005E+06 0.00386392
1.01103E+06 0.00386235
1.01202E+06 0.00386077
1.01257E+06 0.00385989
1.01466E+06 0.00385654
1.01633E+06 0.00385387
1.01660E+06 0.00385344
1.01683E+06 0.00385307
1.01700E+06 0.00385280
1.01744E+06 0.00385210
1.01834E+06 0.00385066
1.01967E+06 0.00384853
1.02049E+06 0.00384722
1.02071E+06 0.00384686
1.02099E+06 0.00384642
1.02184E+06 0.00384506
1.02218E+06 0.00384451
1.02296E+06 0.00384326
1.02441E+06 0.00384094
1.02475E+06 0.00384040
1.02542E+06 0.00383933
1.02609E+06 0.00383826
1.02676E+06 0.00383718
1.02834E+06 0.00383466
1.02924E+06 0.00383322
1.03048E+06 0.00383123
1.03059E+06 0.00383106
1.03180E+06 0.00382912
1.03180E+06 0.00382912
1.03183E+06 0.00382907
1.03217E+06 0.00382853
1.03387E+06 0.00382581
1.03478E+06 0.00382435
1.03535E+06 0.00382344
1.03580E+06 0.00382272
1.03740E+06 0.00382016
1.03797E+06 0.00381925
1.03968E+06 0.00381651
1.04071E+06 0.00381486
1.04163E+06 0.00381339
1.04197E+06 0.00381285
1.04255E+06 0.00381192
1.04312E+06 0.00381101
1.04405E+06 0.00380952
1.04422E+06 0.00380925
1.04445E+06 0.00380888
1.04451E+06 0.00380878
1.04468E+06 0.00380851
1.04509E+06 0.00380786
1.04561E+06 0.00380702
1.04613E+06 0.00380619
1.04630E+06 0.00380592
1.04688E+06 0.00380499
1.04810E+06 0.00380304
1.04868E+06 0.00380211
1.05007E+06 0.00379989
1.05100E+06 0.00379840
1.05146E+06 0.00379766
1.05181E+06 0.00379710
1.05263E+06 0.00379579
1.05298E+06 0.00379523
1.05345E+06 0.00379448
1.05357E+06 0.00379429
1.05369E+06 0.00379410
1.05474E+06 0.00379242
1.05638E+06 0.00378979
1.05755E+06 0.00378792
1.05802E+06 0.00378717
1.05837E+06 0.00378661
1.05919E+06 0.00378530
1.05990E+06 0.00378416
1.06049E+06 0.00378322
1.06084E+06 0.00378266
1.06120E+06 0.00378208
1.06167E+06 0.00378133
1.06249E+06 0.00378002
1.06344E+06 0.00377850
1.06380E+06 0.00377792
1.06439E+06 0.00377698
1.06498E+06 0.00377603
1.06593E+06 0.00377451
1.06629E+06 0.00377394
1.06652E+06 0.00377357
1.06747E+06 0.00377205
1.06771E+06 0.00377166
1.06831E+06 0.00377070
1.06890E+06 0.00376976
1.06938E+06 0.00376899
1.07010E+06 0.00376784
1.07105E+06 0.00376632
1.07273E+06 0.00376363
1.07357E+06 0.00376229
1.07429E+06 0.00376114
1.07477E+06 0.00376037
1.07501E+06 0.00375998
1.07573E+06 0.00375883
1.07657E+06 0.00375749
1.07706E+06 0.00375670
1.07742E+06 0.00375613
1.07802E+06 0.00375517
1.07887E+06 0.00375381
1.07923E+06 0.00375323
1.07972E+06 0.00375245
1.08032E+06 0.00375149
1.08068E+06 0.00375091
1.08200E+06 0.00374880
1.08255E+06 0.00374792
1.08291E+06 0.00374734
1.08334E+06 0.00374666
1.08370E+06 0.00374608
1.08401E+06 0.00374558
1.08453E+06 0.00374475
1.08562E+06 0.00374301
1.08697E+06 0.00374085
1.08782E+06 0.00373949
1.08831E+06 0.00373870
1.08917E+06 0.00373733
1.08954E+06 0.00373674
1.08991E+06 0.00373614
1.09015E+06 0.00373576
1.09089E+06 0.00373458
1.09151E+06 0.00373358
1.09249E+06 0.00373202
1.09372E+06 0.00373005
1.09508E+06 0.00372787
1.09694E+06 0.00372490
1.09732E+06 0.00372429
1.09819E+06 0.00372290
1.09943E+06 0.00372091
1.10133E+06 0.00371787
1.10157E+06 0.00371749
1.10220E+06 0.00371648
1.10257E+06 0.00371589
1.10330E+06 0.00371472
1.10417E+06 0.00371333
1.10467E+06 0.00371253
1.10530E+06 0.00371152
1.10568E+06 0.00371091
1.10618E+06 0.00371011
1.10681E+06 0.00370910
1.10744E+06 0.00370810
1.10832E+06 0.00370669
1.10920E+06 0.00370528
1.10970E+06 0.00370448
1.11097E+06 0.00370245
1.11160E+06 0.00370144
1.11223E+06 0.00370043
1.11299E+06 0.00369922
1.11362E+06 0.00369821
1.11426E+06 0.00369718
1.11464E+06 0.00369658
1.11489E+06 0.00369618
1.11565E+06 0.00369496
1.11629E+06 0.00369394
1.11743E+06 0.00369211
1.11794E+06 0.00369130
1.11820E+06 0.00369088
1.11821E+06 0.00369086
1.11846E+06 0.00369046
1.11935E+06 0.00368904
1.11999E+06 0.00368802
1.12076E+06 0.00368678
1.12165E+06 0.00368536
1.12191E+06 0.00368494
1.12255E+06 0.00368392
1.12332E+06 0.00368269
1.12435E+06 0.00368104
1.12474E+06 0.00368042
1.12499E+06 0.00368002
1.12693E+06 0.00367691
1.12757E+06 0.00367589
1.12822E+06 0.00367485
1.12886E+06 0.00367382
1.12938E+06 0.00367299
1.13005E+06 0.00367192
1.13070E+06 0.00367088
1.13109E+06 0.00367026
1.13129E+06 0.00366994
1.13148E+06 0.00366963
1.13227E+06 0.00366837
1.13305E+06 0.00366712
1.13370E+06 0.00366608
1.13501E+06 0.00366398
1.13566E+06 0.00366294
1.13592E+06 0.00366253
1.13670E+06 0.00366128
1.13775E+06 0.00365960
1.13919E+06 0.00365730
1.13985E+06 0.00365624
1.14064E+06 0.00365498
1.14143E+06 0.00365371
1.14261E+06 0.00365182
1.14314E+06 0.00365098
1.14368E+06 0.00365011
1.14394E+06 0.00364970
1.14434E+06 0.00364906
1.14513E+06 0.00364779
1.14632E+06 0.00364589
1.14659E+06 0.00364546
1.14765E+06 0.00364376
1.14831E+06 0.00364270
1.14937E+06 0.00364101
1.15044E+06 0.00363930
1.15070E+06 0.00363888
1.15074E+06 0.00363882
1.15177E+06 0.00363717
1.15244E+06 0.00363610
1.15297E+06 0.00363525
1.15377E+06 0.00363397
1.15511E+06 0.00363182
1.15605E+06 0.00363032
1.15659E+06 0.00362946
1.15685E+06 0.00362904
1.15739E+06 0.00362818
1.15847E+06 0.00362645
1.15887E+06 0.00362581
1.15995E+06 0.00362408
1.16116E+06 0.00362214
1.16143E+06 0.00362171
1.16238E+06 0.00362019
1.16332E+06 0.00361869
1.16373E+06 0.00361803
1.16427E+06 0.00361717
1.16468E+06 0.00361651
1.16495E+06 0.00361608
1.16604E+06 0.00361434
1.16644E+06 0.00361370
1.16699E+06 0.00361282
1.16808E+06 0.00361107
1.16849E+06 0.00361042
1.17026E+06 0.00360758
1.17122E+06 0.00360605
1.17204E+06 0.00360474
1.17313E+06 0.00360299
1.17396E+06 0.00360166
1.17451E+06 0.00360078
1.17561E+06 0.00359902
1.17616E+06 0.00359814
1.17726E+06 0.00359638
1.17795E+06 0.00359528
1.17864E+06 0.00359418
1.17905E+06 0.00359352
1.18016E+06 0.00359174
1.18099E+06 0.00359042
1.18168E+06 0.00358931
1.18265E+06 0.00358776
1.18321E+06 0.00358686
1.18348E+06 0.00358643
1.18462E+06 0.00358461
1.18602E+06 0.00358237
1.18748E+06 0.00358003
1.18853E+06 0.00357835
1.18958E+06 0.00357667
1.19042E+06 0.00357533
1.19147E+06 0.00357365
1.19310E+06 0.00357104
1.19367E+06 0.00357013
1.19416E+06 0.00356934
1.19472E+06 0.00356845
1.19514E+06 0.00356778
1.19543E+06 0.00356731
1.19657E+06 0.00356549
1.19875E+06 0.00356200
1.20030E+06 0.00355952
1.20116E+06 0.00355814
1.20372E+06 0.00355405
1.20400E+06 0.00355360
1.20460E+06 0.00355264
1.20462E+06 0.00355261
1.20472E+06 0.00355245
1.20557E+06 0.00355109
1.20700E+06 0.00354880
1.20829E+06 0.00354674
1.20987E+06 0.00354421
1.21116E+06 0.00354214
1.21332E+06 0.00353869
1.21389E+06 0.00353778
1.21432E+06 0.00353709
1.21461E+06 0.00353662
1.21482E+06 0.00353629
1.21511E+06 0.00353582
1.21610E+06 0.00353424
1.21741E+06 0.00353214
1.21799E+06 0.00353122
1.21842E+06 0.00353053
1.21975E+06 0.00352840
1.22106E+06 0.00352630
1.22164E+06 0.00352538
1.22266E+06 0.00352374
1.22295E+06 0.00352328
1.22332E+06 0.00352269
1.22383E+06 0.00352187
1.22448E+06 0.00352083
1.22470E+06 0.00352048
1.22500E+06 0.00352000
1.22536E+06 0.00351942
1.22565E+06 0.00351896
1.22624E+06 0.00351802
1.22705E+06 0.00351672
1.22756E+06 0.00351590
1.22771E+06 0.00351566
1.22800E+06 0.00351520
1.22866E+06 0.00351414
1.22910E+06 0.00351344
1.22925E+06 0.00351320
1.22947E+06 0.00351285
1.22976E+06 0.00351238
1.22999E+06 0.00351202
1.23028E+06 0.00351155
1.23096E+06 0.00351046
1.23162E+06 0.00350941
1.23280E+06 0.00350752
1.23369E+06 0.00350610
1.23458E+06 0.00350467
1.23605E+06 0.00350232
1.23701E+06 0.00350078
1.23776E+06 0.00349958
1.23805E+06 0.00349912
1.23820E+06 0.00349888
1.23865E+06 0.00349816
1.23887E+06 0.00349781
1.23939E+06 0.00349698
1.23963E+06 0.00349659
1.24015E+06 0.00349576
1.24104E+06 0.00349434
1.24149E+06 0.00349362
1.24239E+06 0.00349218
1.24358E+06 0.00349027
1.24418E+06 0.00348931
1.24463E+06 0.00348859
1.24493E+06 0.00348811
1.24568E+06 0.00348691
1.24673E+06 0.00348523
1.24718E+06 0.00348451
1.24793E+06 0.00348331
1.24914E+06 0.00348138
1.25000E+06 0.00348000
1.25034E+06 0.00347946
1.25065E+06 0.00347896
1.25087E+06 0.00347861
1.25162E+06 0.00347741
1.25283E+06 0.00347547
1.25404E+06 0.00347354
1.25586E+06 0.00347062
1.25662E+06 0.00346941
1.25753E+06 0.00346795
1.25921E+06 0.00346526
1.25982E+06 0.00346429
1.26089E+06 0.00346258
1.26135E+06 0.00346184
1.26226E+06 0.00346038
1.26410E+06 0.00345744
1.26548E+06 0.00345523
1.26579E+06 0.00345474
1.26665E+06 0.00345336
1.26700E+06 0.00345280
1.26761E+06 0.00345182
1.26777E+06 0.00345157
1.26823E+06 0.00345083
1.26839E+06 0.00345058
1.26900E+06 0.00344960
1.26962E+06 0.00344861
1.27051E+06 0.00344718
1.27128E+06 0.00344595
1.27361E+06 0.00344222
1.27469E+06 0.00344050
1.27594E+06 0.00343850
1.27656E+06 0.00343750
1.27687E+06 0.00343701
1.27843E+06 0.00343451
1.27921E+06 0.00343326
1.27999E+06 0.00343202
1.28063E+06 0.00343099
1.28204E+06 0.00342874
1.28243E+06 0.00342811
1.28335E+06 0.00342664
1.28460E+06 0.00342464
1.28617E+06 0.00342213
1.28775E+06 0.00341960
1.28822E+06 0.00341885
1.28933E+06 0.00341707
1.28980E+06 0.00341632
1.29059E+06 0.00341506
1.29257E+06 0.00341189
1.29368E+06 0.00341011
1.29408E+06 0.00340947
1.29423E+06 0.00340923
1.29567E+06 0.00340693
1.29678E+06 0.00340515
1.29750E+06 0.00340400
1.29878E+06 0.00340195
1.29910E+06 0.00340144
1.29950E+06 0.00340080
1.30033E+06 0.00339947
1.30129E+06 0.00339794
1.30274E+06 0.00339562
1.30322E+06 0.00339485
1.30418E+06 0.00339331
1.30467E+06 0.00339253
1.30611E+06 0.00339022
1.30692E+06 0.00338893
1.30724E+06 0.00338842
1.30805E+06 0.00338712
1.30870E+06 0.00338608
1.31064E+06 0.00338298
1.31161E+06 0.00338142
1.31307E+06 0.00337909
1.31433E+06 0.00337707
1.31480E+06 0.00337632
1.31561E+06 0.00337502
1.31618E+06 0.00337411
1.31732E+06 0.00337229
1.31781E+06 0.00337150
1.31830E+06 0.00337072
1.31936E+06 0.00336902
1.31969E+06 0.00336850
1.32018E+06 0.00336771
1.32100E+06 0.00336640
1.32206E+06 0.00336470
1.32529E+06 0.00335954
1.32678E+06 0.00335715
1.32719E+06 0.00335650
1.32744E+06 0.00335610
1.32768E+06 0.00335571
1.32859E+06 0.00335426
1.32909E+06 0.00335346
1.32934E+06 0.00335306
1.33107E+06 0.00335029
1.33157E+06 0.00334949
1.33240E+06 0.00334816
1.33257E+06 0.00334789
1.33290E+06 0.00334736
1.33315E+06 0.00334696
1.33340E+06 0.00334656
1.33406E+06 0.00334550
1.33473E+06 0.00334443
1.33680E+06 0.00334112
1.33897E+06 0.00333765
1.33997E+06 0.00333605
1.34148E+06 0.00333363
1.34166E+06 0.00333334
1.34200E+06 0.00333280
1.34316E+06 0.00333094
1.34451E+06 0.00332878
1.34560E+06 0.00332704
1.34602E+06 0.00332637
1.34670E+06 0.00332528
1.34695E+06 0.00332488
1.34746E+06 0.00332406
1.34796E+06 0.00332326
1.34813E+06 0.00332299
1.34856E+06 0.00332230
1.34923E+06 0.00332123
1.34982E+06 0.00332029
1.35008E+06 0.00331987
1.35042E+06 0.00331933
1.35118E+06 0.00331811
1.35152E+06 0.00331757
1.35177E+06 0.00331717
1.35211E+06 0.00331662
1.35271E+06 0.00331566
1.35347E+06 0.00331445
1.35415E+06 0.00331336
1.35449E+06 0.00331282
1.35526E+06 0.00331158
1.35594E+06 0.00331050
1.35714E+06 0.00330858
1.35850E+06 0.00330640
1.36038E+06 0.00330339
1.36210E+06 0.00330064
1.36416E+06 0.00329734
1.36605E+06 0.00329432
1.36709E+06 0.00329266
1.36766E+06 0.00329174
1.36800E+06 0.00329120
1.36835E+06 0.00329064
1.36904E+06 0.00328954
1.36973E+06 0.00328843
1.37034E+06 0.00328746
1.37077E+06 0.00328677
1.37103E+06 0.00328635
1.37120E+06 0.00328608
1.37189E+06 0.00328498
1.37250E+06 0.00328400
1.37302E+06 0.00328317
1.37364E+06 0.00328218
1.37469E+06 0.00328050
1.37556E+06 0.00327910
1.37712E+06 0.00327661
1.37904E+06 0.00327354
1.37939E+06 0.00327298
1.37974E+06 0.00327242
1.38044E+06 0.00327130
1.38114E+06 0.00327018
1.38237E+06 0.00326821
1.38272E+06 0.00326765
1.38342E+06 0.00326653
1.38430E+06 0.00326512
1.38483E+06 0.00326427
1.38624E+06 0.00326202
1.38712E+06 0.00326061
1.38784E+06 0.00325946
1.38890E+06 0.00325776
1.39014E+06 0.00325578
1.39120E+06 0.00325408
1.39191E+06 0.00325294
1.39332E+06 0.00325069
1.39475E+06 0.00324840
1.39760E+06 0.00324384
1.40063E+06 0.00323899
1.40206E+06 0.00323670
1.40260E+06 0.00323584
1.40368E+06 0.00323411
1.40422E+06 0.00323325
1.40547E+06 0.00323125
1.40637E+06 0.00322981
1.40709E+06 0.00322866
1.40745E+06 0.00322808
1.40872E+06 0.00322605
1.40962E+06 0.00322461
1.41051E+06 0.00322318
1.41070E+06 0.00322288
1.41106E+06 0.00322230
1.41251E+06 0.00321998
1.41342E+06 0.00321853
1.41433E+06 0.00321707
1.41542E+06 0.00321533
1.41705E+06 0.00321272
1.41887E+06 0.00320981
1.41997E+06 0.00320805
1.42180E+06 0.00320512
1.42235E+06 0.00320424
1.42271E+06 0.00320366
1.42320E+06 0.00320288
1.42436E+06 0.00320102
1.42509E+06 0.00319986
1.42610E+06 0.00319824
1.42629E+06 0.00319794
1.42721E+06 0.00319646
1.42822E+06 0.00319485
1.42891E+06 0.00319374
1.43020E+06 0.00319168
1.43093E+06 0.00319051
1.43223E+06 0.00318843
1.43482E+06 0.00318429
1.43519E+06 0.00318370
1.43649E+06 0.00318162
1.43686E+06 0.00318102
1.43910E+06 0.00317744
1.44022E+06 0.00317565
1.44134E+06 0.00317386
1.44171E+06 0.00317326
1.44264E+06 0.00317178
1.44339E+06 0.00317058
1.44396E+06 0.00316966
1.44696E+06 0.00316486
1.44902E+06 0.00316157
1.44940E+06 0.00316096
1.45053E+06 0.00315915
1.45147E+06 0.00315765
1.45185E+06 0.00315704
1.45281E+06 0.00315550
1.45357E+06 0.00315429
1.45508E+06 0.00315187
1.45660E+06 0.00314944
1.45808E+06 0.00314707
1.45853E+06 0.00314635
1.46015E+06 0.00314376
1.46072E+06 0.00314285
1.46139E+06 0.00314178
1.46305E+06 0.00313912
1.46554E+06 0.00313514
1.46630E+06 0.00313392
1.46688E+06 0.00313299
1.46803E+06 0.00313115
1.46899E+06 0.00312962
1.47226E+06 0.00312438
1.47265E+06 0.00312376
1.47419E+06 0.00312130
1.47593E+06 0.00311851
1.47709E+06 0.00311666
1.47864E+06 0.00311418
1.47909E+06 0.00311346
1.47910E+06 0.00311344
1.47981E+06 0.00311230
1.48136E+06 0.00310982
1.48195E+06 0.00310888
1.48292E+06 0.00310733
1.48351E+06 0.00310638
1.48507E+06 0.00310389
1.48683E+06 0.00310107
1.48878E+06 0.00309795
1.48937E+06 0.00309701
1.49134E+06 0.00309386
1.49271E+06 0.00309166
1.49350E+06 0.00309040
1.49449E+06 0.00308882
1.49626E+06 0.00308598
1.49705E+06 0.00308472
1.49883E+06 0.00308187
1.49923E+06 0.00308123
1.49964E+06 0.00308058
1.50000E+06 0.00308000
1.50103E+06 0.00307835
1.50153E+06 0.00307755
1.50203E+06 0.00307675
1.50252E+06 0.00307597
1.50322E+06 0.00307485
1.50382E+06 0.00307389
1.50649E+06 0.00306962
1.50709E+06 0.00306866
1.50869E+06 0.00306610
1.50989E+06 0.00306418
1.51170E+06 0.00306128
1.51471E+06 0.00305646
1.51571E+06 0.00305486
1.51652E+06 0.00305357
1.51773E+06 0.00305163
1.51835E+06 0.00305064
1.52017E+06 0.00304773
1.52139E+06 0.00304578
1.52463E+06 0.00304059
1.52646E+06 0.00303766
1.52789E+06 0.00303538
1.52932E+06 0.00303309
1.52973E+06 0.00303243
1.53054E+06 0.00303114
1.53116E+06 0.00303014
1.53177E+06 0.00302917
1.53259E+06 0.00302786
1.53361E+06 0.00302622
1.53423E+06 0.00302523
1.53484E+06 0.00302426
1.53587E+06 0.00302261
1.53690E+06 0.00302096
1.53813E+06 0.00301899
1.53896E+06 0.00301766
1.54081E+06 0.00301470
1.54164E+06 0.00301338
1.54350E+06 0.00301040
1.54633E+06 0.00300587
1.54716E+06 0.00300454
1.54788E+06 0.00300339
1.54851E+06 0.00300238
1.54903E+06 0.00300155
1.55038E+06 0.00299939
1.55059E+06 0.00299906
1.55132E+06 0.00299789
1.55262E+06 0.00299581
1.55471E+06 0.00299246
1.55534E+06 0.00299146
1.55660E+06 0.00298944
1.55722E+06 0.00298845
1.55806E+06 0.00298710
1.55953E+06 0.00298475
1.56122E+06 0.00298205
1.56185E+06 0.00298104
1.56311E+06 0.00297902
1.56396E+06 0.00297766
1.56544E+06 0.00297530
1.56607E+06 0.00297429
1.56713E+06 0.00297259
1.56819E+06 0.00297090
1.57095E+06 0.00296648
1.57244E+06 0.00296410
1.57329E+06 0.00296274
1.57371E+06 0.00296206
1.57521E+06 0.00295966
1.57627E+06 0.00295797
1.57734E+06 0.00295626
1.57798E+06 0.00295523
1.57905E+06 0.00295352
1.57991E+06 0.00295214
1.58141E+06 0.00294974
1.58291E+06 0.00294734
1.58463E+06 0.00294459
1.58567E+06 0.00294293
1.58630E+06 0.00294192
1.58684E+06 0.00294106
1.58722E+06 0.00294045
1.58758E+06 0.00293987
1.58952E+06 0.00293677
1.59060E+06 0.00293504
1.59170E+06 0.00293328
1.59279E+06 0.00293154
1.59366E+06 0.00293014
1.59474E+06 0.00292842
1.59561E+06 0.00292702
1.59692E+06 0.00292493
1.59779E+06 0.00292354
1.59888E+06 0.00292179
1.60107E+06 0.00291829
1.60194E+06 0.00291690
1.60325E+06 0.00291480
1.60457E+06 0.00291269
1.60545E+06 0.00291128
1.60611E+06 0.00291022
1.60776E+06 0.00290758
1.60812E+06 0.00290701
1.60900E+06 0.00290560
1.60988E+06 0.00290419
1.61055E+06 0.00290312
1.61099E+06 0.00290242
1.61154E+06 0.00290154
1.61187E+06 0.00290101
1.61298E+06 0.00289923
1.61342E+06 0.00289853
1.61521E+06 0.00289566
1.61698E+06 0.00289283
1.61765E+06 0.00289176
1.61898E+06 0.00288963
1.62054E+06 0.00288714
1.62143E+06 0.00288571
1.62210E+06 0.00288464
1.62254E+06 0.00288394
1.62433E+06 0.00288107
1.62540E+06 0.00287936
1.62593E+06 0.00287851
1.62627E+06 0.00287797
1.62683E+06 0.00287707
1.62772E+06 0.00287565
1.62817E+06 0.00287493
1.62862E+06 0.00287421
1.62896E+06 0.00287366
1.62963E+06 0.00287259
1.63162E+06 0.00286941
1.63568E+06 0.00286291
1.63749E+06 0.00286002
1.63907E+06 0.00285749
1.63975E+06 0.00285640
1.64088E+06 0.00285459
1.64157E+06 0.00285349
1.64202E+06 0.00285277
1.64270E+06 0.00285168
1.64338E+06 0.00285059
1.64384E+06 0.00284986
1.64429E+06 0.00284914
1.64611E+06 0.00284622
1.64726E+06 0.00284438
1.64840E+06 0.00284256
1.64886E+06 0.00284182
1.65160E+06 0.00283744
1.65297E+06 0.00283525
1.65389E+06 0.00283378
1.65550E+06 0.00283120
1.65665E+06 0.00282936
1.65965E+06 0.00282456
1.66057E+06 0.00282309
1.66126E+06 0.00282198
1.66219E+06 0.00282050
1.66358E+06 0.00281827
1.66406E+06 0.00281750
1.66708E+06 0.00281267
1.66801E+06 0.00281118
1.66987E+06 0.00280821
1.67127E+06 0.00280597
1.67197E+06 0.00280485
1.67430E+06 0.00280112
1.67571E+06 0.00279886
1.67782E+06 0.00279549
1.67876E+06 0.00279398
1.67993E+06 0.00279211
1.68111E+06 0.00279022
1.68205E+06 0.00278872
1.68417E+06 0.00278533
1.68559E+06 0.00278306
1.68748E+06 0.00278003
1.68795E+06 0.00277928
1.69151E+06 0.00277358
1.69341E+06 0.00277054
1.69483E+06 0.00276827
1.69650E+06 0.00276560
1.69722E+06 0.00276445
1.69865E+06 0.00276216
1.69961E+06 0.00276062
1.70200E+06 0.00275680
1.70344E+06 0.00275450
1.70392E+06 0.00275373
1.70512E+06 0.00275181
1.70584E+06 0.00275066
1.70777E+06 0.00274757
1.70970E+06 0.00274448
1.71066E+06 0.00274294
1.71115E+06 0.00274216
1.71236E+06 0.00274022
1.71356E+06 0.00273830
1.71429E+06 0.00273714
1.71502E+06 0.00273597
1.71672E+06 0.00273325
1.71818E+06 0.00273091
1.72110E+06 0.00272624
1.72183E+06 0.00272507
1.72232E+06 0.00272429
1.72354E+06 0.00272234
1.72549E+06 0.00271922
1.72696E+06 0.00271686
1.72868E+06 0.00271411
1.73064E+06 0.00271098
1.73138E+06 0.00270979
1.73236E+06 0.00270822
1.73310E+06 0.00270704
1.73705E+06 0.00270072
1.73952E+06 0.00269677
1.74125E+06 0.00269400
1.74349E+06 0.00269042
1.74523E+06 0.00268763
1.74748E+06 0.00268403
1.74922E+06 0.00268125
1.75000E+06 0.00268000
1.75197E+06 0.00267685
1.75322E+06 0.00267485
1.75548E+06 0.00267123
1.75649E+06 0.00266962
1.75726E+06 0.00266838
1.75927E+06 0.00266517
1.76028E+06 0.00266355
1.76281E+06 0.00265950
1.76483E+06 0.00265627
1.76914E+06 0.00264938
1.77245E+06 0.00264408
1.77449E+06 0.00264082
1.77653E+06 0.00263755
1.77730E+06 0.00263632
1.77934E+06 0.00263306
1.78165E+06 0.00262936
1.78294E+06 0.00262730
1.78371E+06 0.00262606
1.78551E+06 0.00262318
1.78783E+06 0.00261947
1.78886E+06 0.00261782
1.79352E+06 0.00261037
1.79534E+06 0.00260746
1.79638E+06 0.00260579
1.79820E+06 0.00260288
1.79950E+06 0.00260080
1.80028E+06 0.00259955
1.80132E+06 0.00259789
1.80315E+06 0.00259496
1.80577E+06 0.00259077
1.80708E+06 0.00258867
1.80892E+06 0.00258573
1.81076E+06 0.00258278
1.81155E+06 0.00258152
1.81260E+06 0.00257984
1.81471E+06 0.00257646
1.81735E+06 0.00257224
1.81841E+06 0.00257054
1.81947E+06 0.00256885
1.82159E+06 0.00256546
1.82291E+06 0.00256334
1.82504E+06 0.00255994
1.82558E+06 0.00255907
1.82771E+06 0.00255566
1.82931E+06 0.00255310
1.83038E+06 0.00255139
1.83547E+06 0.00254325
1.83735E+06 0.00254024
1.83816E+06 0.00253894
1.83869E+06 0.00253810
1.84031E+06 0.00253550
1.84139E+06 0.00253378
1.84328E+06 0.00253075
1.84409E+06 0.00252946
1.84544E+06 0.00252730
1.84598E+06 0.00252643
1.84679E+06 0.00252514
1.84788E+06 0.00252339
1.84896E+06 0.00252166
1.85032E+06 0.00251949
1.85250E+06 0.00251600
1.85359E+06 0.00251426
1.85495E+06 0.00251208
1.85659E+06 0.00250946
1.85768E+06 0.00250771
1.85959E+06 0.00250466
1.86014E+06 0.00250378
1.86096E+06 0.00250246
1.86233E+06 0.00250027
1.86386E+06 0.00249782
1.86661E+06 0.00249342
1.86771E+06 0.00249166
1.87020E+06 0.00248768
1.87130E+06 0.00248592
1.87324E+06 0.00248282
1.87407E+06 0.00248149
1.87629E+06 0.00247794
1.87712E+06 0.00247661
1.87767E+06 0.00247573
1.87962E+06 0.00247261
1.88045E+06 0.00247128
1.88296E+06 0.00246726
1.88548E+06 0.00246323
1.88603E+06 0.00246235
1.88855E+06 0.00245832
1.88940E+06 0.00245696
1.89079E+06 0.00245474
1.89276E+06 0.00245158
1.89614E+06 0.00244618
1.89811E+06 0.00244302
1.89953E+06 0.00244075
1.90179E+06 0.00243714
1.90292E+06 0.00243533
1.90406E+06 0.00243350
1.90519E+06 0.00243170
1.90832E+06 0.00242669
1.90946E+06 0.00242486
1.91117E+06 0.00242213
1.91231E+06 0.00242030
1.91374E+06 0.00241802
1.91488E+06 0.00241619
1.91602E+06 0.00241437
1.91775E+06 0.00241160
1.91861E+06 0.00241022
1.92292E+06 0.00240333
1.92436E+06 0.00240102
1.92580E+06 0.00239872
1.92753E+06 0.00239595
1.92956E+06 0.00239270
1.93187E+06 0.00238901
1.93245E+06 0.00238808
1.93390E+06 0.00238576
1.93535E+06 0.00238344
1.93623E+06 0.00238203
1.93885E+06 0.00237784
1.94002E+06 0.00237597
1.94147E+06 0.00237365
1.94206E+06 0.00237270
1.94352E+06 0.00237037
1.94469E+06 0.00236850
1.94674E+06 0.00236522
1.94909E+06 0.00236146
1.94997E+06 0.00236005
1.95144E+06 0.00235770
1.95262E+06 0.00235581
1.95380E+06 0.00235392
1.95793E+06 0.00234731
1.96178E+06 0.00234115
1.96445E+06 0.00233688
1.96624E+06 0.00233402
1.96803E+06 0.00233115
1.96833E+06 0.00233067
1.96922E+06 0.00232925
1.97161E+06 0.00232542
1.97340E+06 0.00232256
1.97460E+06 0.00232064
1.97610E+06 0.00231824
1.97760E+06 0.00231584
1.98060E+06 0.00231104
1.98302E+06 0.00230717
1.98452E+06 0.00230477
1.98603E+06 0.00230235
1.98755E+06 0.00229992
1.98967E+06 0.00229653
1.99300E+06 0.00229120
1.99452E+06 0.00228877
1.99604E+06 0.00228634
1.99787E+06 0.00228341
1.99940E+06 0.00228096
2.00000E+06 0.00228000
2.00000E+06 0.00228000
2.00062E+06 0.00227981
2.00215E+06 0.00227933
2.00429E+06 0.00227867
2.00613E+06 0.00227810
2.00705E+06 0.00227782
2.00858E+06 0.00227734
2.00951E+06 0.00227705
2.01054E+06 0.00227673
2.01259E+06 0.00227610
2.01435E+06 0.00227555
2.01581E+06 0.00227510
2.01905E+06 0.00227410
2.02022E+06 0.00227373
2.02259E+06 0.00227300
2.02436E+06 0.00227245
2.02731E+06 0.00227153
2.02850E+06 0.00227117
2.02998E+06 0.00227071
2.03266E+06 0.00226988
2.03385E+06 0.00226951
2.03534E+06 0.00226905
2.03623E+06 0.00226877
2.03712E+06 0.00226849
2.03862E+06 0.00226803
2.04101E+06 0.00226729
2.04191E+06 0.00226701
2.04370E+06 0.00226645
2.04851E+06 0.00226496
2.05001E+06 0.00226450
2.05062E+06 0.00226431
2.05242E+06 0.00226375
2.05363E+06 0.00226338
2.05514E+06 0.00226291
2.05786E+06 0.00226206
2.06120E+06 0.00226103
2.06211E+06 0.00226075
2.06393E+06 0.00226018
2.06820E+06 0.00225886
2.07064E+06 0.00225810
2.07187E+06 0.00225772
2.07463E+06 0.00225687
2.07585E+06 0.00225649
2.07830E+06 0.00225573
2.07923E+06 0.00225544
2.08015E+06 0.00225515
2.08200E+06 0.00225458
2.08324E+06 0.00225420
2.08540E+06 0.00225353
2.08663E+06 0.00225315
2.08880E+06 0.00225247
2.09035E+06 0.00225199
2.09345E+06 0.00225103
2.09470E+06 0.00225064
2.09594E+06 0.00225026
2.09719E+06 0.00224987
2.09937E+06 0.00224920
2.10031E+06 0.00224890
2.10375E+06 0.00224784
2.10531E+06 0.00224735
2.10751E+06 0.00224667
2.10876E+06 0.00224628
2.10970E+06 0.00224599
2.11160E+06 0.00224540
2.11412E+06 0.00224462
2.11696E+06 0.00224374
2.12107E+06 0.00224247
2.12361E+06 0.00224168
2.12934E+06 0.00223991
2.13157E+06 0.00223921
2.13445E+06 0.00223832
2.13637E+06 0.00223773
2.13736E+06 0.00223742
2.14154E+06 0.00223612
2.14411E+06 0.00223533
2.14604E+06 0.00223473
2.14668E+06 0.00223453
2.14895E+06 0.00223383
2.15024E+06 0.00223343
2.15186E+06 0.00223292
2.15413E+06 0.00223222
2.15803E+06 0.00223101
2.16063E+06 0.00223021
2.16357E+06 0.00222929
2.16717E+06 0.00222818
2.17044E+06 0.00222716
2.17702E+06 0.00222512
2.17867E+06 0.00222461
2.17999E+06 0.00222420
2.18164E+06 0.00222369
2.18395E+06 0.00222298
2.18528E+06 0.00222256
2.18694E+06 0.00222205
2.18893E+06 0.00222143
2.19059E+06 0.00222092
2.19293E+06 0.00222019
2.19493E+06 0.00221957
2.19660E+06 0.00221905
2.19927E+06 0.00221823
2.20195E+06 0.00221740
2.20329E+06 0.00221698
2.20598E+06 0.00221615
2.21036E+06 0.00221479
2.21137E+06 0.00221448
2.21238E+06 0.00221416
2.21407E+06 0.00221364
2.21644E+06 0.00221290
2.21983E+06 0.00221185
2.22289E+06 0.00221090
2.22527E+06 0.00221017
2.22800E+06 0.00220932
2.23175E+06 0.00220816
2.23346E+06 0.00220763
2.23655E+06 0.00220667
2.23965E+06 0.00220571
2.24205E+06 0.00220497
2.24343E+06 0.00220454
2.24516E+06 0.00220400
2.24723E+06 0.00220336
2.25000E+06 0.00220250
2.25035E+06 0.00220239
2.25346E+06 0.00220143
2.25555E+06 0.00220078
2.25729E+06 0.00220024
2.26112E+06 0.00219905
2.26426E+06 0.00219808
2.26671E+06 0.00219732
2.26847E+06 0.00219677
2.27201E+06 0.00219568
2.27870E+06 0.00219360
2.28224E+06 0.00219251
2.28365E+06 0.00219207
2.28755E+06 0.00219086
2.28933E+06 0.00219031
2.29039E+06 0.00218998
2.29146E+06 0.00218965
2.29395E+06 0.00218888
2.29609E+06 0.00218821
2.29788E+06 0.00218766
2.29967E+06 0.00218710
2.30074E+06 0.00218677
2.30182E+06 0.00218644
2.30397E+06 0.00218577
2.30613E+06 0.00218510
2.30828E+06 0.00218443
2.31044E+06 0.00218376
2.31153E+06 0.00218343
2.31224E+06 0.00218321
2.31477E+06 0.00218242
2.31622E+06 0.00218197
2.31948E+06 0.00218096
2.32129E+06 0.00218040
2.32383E+06 0.00217961
2.32492E+06 0.00217928
2.32711E+06 0.00217860
2.33186E+06 0.00217712
2.33441E+06 0.00217633
2.33698E+06 0.00217554
2.33881E+06 0.00217497
2.34322E+06 0.00217360
2.34543E+06 0.00217292
2.34765E+06 0.00217223
2.34949E+06 0.00217166
2.35356E+06 0.00217040
2.35505E+06 0.00216994
2.35801E+06 0.00216902
2.36546E+06 0.00216671
2.36883E+06 0.00216566
2.37295E+06 0.00216439
2.37558E+06 0.00216357
2.37858E+06 0.00216264
2.37972E+06 0.00216229
2.38311E+06 0.00216124
2.38576E+06 0.00216041
2.39068E+06 0.00215889
2.39334E+06 0.00215807
2.39486E+06 0.00215759
2.39600E+06 0.00215724
2.39790E+06 0.00215665
2.39981E+06 0.00215606
2.40057E+06 0.00215582
2.40248E+06 0.00215523
2.40554E+06 0.00215428
2.40938E+06 0.00215309
2.41245E+06 0.00215214
2.41476E+06 0.00215142
2.41785E+06 0.00215047
2.42016E+06 0.00214975
2.42171E+06 0.00214927
2.42291E+06 0.00214890
2.42639E+06 0.00214782
2.42911E+06 0.00214698
2.43261E+06 0.00214589
2.43729E+06 0.00214444
2.43924E+06 0.00214384
2.44159E+06 0.00214311
2.44394E+06 0.00214238
2.44551E+06 0.00214189
2.44748E+06 0.00214128
2.44945E+06 0.00214067
2.45141E+06 0.00214006
2.45456E+06 0.00213909
2.45615E+06 0.00213859
2.45812E+06 0.00213798
2.45970E+06 0.00213749
2.46129E+06 0.00213700
2.46446E+06 0.00213602
2.46803E+06 0.00213491
2.47162E+06 0.00213380
2.47362E+06 0.00213318
2.47681E+06 0.00213219
2.47842E+06 0.00213169
2.48082E+06 0.00213095
2.48403E+06 0.00212995
2.48604E+06 0.00212933
2.48926E+06 0.00212833
2.49290E+06 0.00212720
2.49370E+06 0.00212695
2.49613E+06 0.00212620
2.49735E+06 0.00212582
2.50000E+06 0.00212500
2.50140E+06 0.00212457
2.50384E+06 0.00212381
2.50546E+06 0.00212331
2.50873E+06 0.00212229
2.50995E+06 0.00212192
2.51322E+06 0.00212090
2.51649E+06 0.00211989
2.51813E+06 0.00211938
2.51936E+06 0.00211900
2.52142E+06 0.00211836
2.52265E+06 0.00211798
2.52471E+06 0.00211734
2.52635E+06 0.00211683
2.52801E+06 0.00211632
2.53007E+06 0.00211568
2.53172E+06 0.00211517
2.53420E+06 0.00211440
2.53657E+06 0.00211366
2.54155E+06 0.00211212
2.54530E+06 0.00211096
2.54780E+06 0.00211018
2.55471E+06 0.00210804
2.55785E+06 0.00210707
2.56038E+06 0.00210628
2.56416E+06 0.00210511
2.56796E+06 0.00210393
2.57304E+06 0.00210236
2.57748E+06 0.00210098
2.58030E+06 0.00210011
2.58158E+06 0.00209971
2.58457E+06 0.00209878
2.58670E+06 0.00209812
2.58755E+06 0.00209786
2.58969E+06 0.00209720
2.59312E+06 0.00209613
2.59530E+06 0.00209546
2.59917E+06 0.00209426
2.60347E+06 0.00209292
2.60649E+06 0.00209199
2.61082E+06 0.00209065
2.61212E+06 0.00209024
2.61343E+06 0.00208984
2.61646E+06 0.00208890
2.62037E+06 0.00208769
2.62648E+06 0.00208579
2.62954E+06 0.00208484
2.63304E+06 0.00208376
2.63524E+06 0.00208308
2.64008E+06 0.00208158
2.64802E+06 0.00207911
2.64979E+06 0.00207857
2.65378E+06 0.00207733
2.65511E+06 0.00207692
2.65600E+06 0.00207664
2.65733E+06 0.00207623
2.66000E+06 0.00207540
2.66133E+06 0.00207499
2.66357E+06 0.00207429
2.66670E+06 0.00207332
2.66849E+06 0.00207277
2.67162E+06 0.00207180
2.67431E+06 0.00207096
2.67521E+06 0.00207069
2.67791E+06 0.00206985
2.68016E+06 0.00206915
2.68376E+06 0.00206803
2.68738E+06 0.00206691
2.68873E+06 0.00206649
2.69100E+06 0.00206579
2.69372E+06 0.00206495
2.69599E+06 0.00206424
2.69872E+06 0.00206340
2.70055E+06 0.00206283
2.70191E+06 0.00206241
2.70328E+06 0.00206198
2.70556E+06 0.00206128
2.70830E+06 0.00206043
2.71104E+06 0.00205958
2.71448E+06 0.00205851
2.71930E+06 0.00205702
2.72553E+06 0.00205509
2.72969E+06 0.00205380
2.73317E+06 0.00205272
2.73665E+06 0.00205164
2.74154E+06 0.00205012
2.74503E+06 0.00204904
2.74713E+06 0.00204839
2.75000E+06 0.00204750
2.75064E+06 0.00204730
2.75416E+06 0.00204621
2.75698E+06 0.00204534
2.75980E+06 0.00204446
2.76121E+06 0.00204403
2.76546E+06 0.00204271
2.77183E+06 0.00204073
2.77611E+06 0.00203941
2.78039E+06 0.00203808
2.78611E+06 0.00203631
2.79185E+06 0.00203453
2.79616E+06 0.00203319
2.79977E+06 0.00203207
2.80266E+06 0.00203118
2.80989E+06 0.00202893
2.81642E+06 0.00202691
2.82087E+06 0.00202553
2.82818E+06 0.00202326
2.83406E+06 0.00202144
2.83920E+06 0.00201985
2.84364E+06 0.00201847
2.84806E+06 0.00201710
2.84955E+06 0.00201664
2.85474E+06 0.00201503
2.85771E+06 0.00201411
2.86069E+06 0.00201319
2.86516E+06 0.00201180
2.86890E+06 0.00201064
2.87265E+06 0.00200948
2.87864E+06 0.00200762
2.88392E+06 0.00200599
2.88770E+06 0.00200481
2.89526E+06 0.00200247
2.90212E+06 0.00200034
2.91203E+06 0.00199727
2.91587E+06 0.00199608
2.92047E+06 0.00199465
2.92586E+06 0.00199298
2.93203E+06 0.00199107
2.93668E+06 0.00198963
2.93978E+06 0.00198867
2.94289E+06 0.00198770
2.94912E+06 0.00198577
2.95458E+06 0.00198408
2.96164E+06 0.00198189
2.96713E+06 0.00198019
2.97186E+06 0.00197872
2.97423E+06 0.00197799
2.97898E+06 0.00197652
2.98294E+06 0.00197529
2.98612E+06 0.00197430
2.98850E+06 0.00197357
2.99170E+06 0.00197257
2.99728E+06 0.00197084
3.00000E+06 0.00197000
3.00770E+06 0.00196885
3.01010E+06 0.00196849
3.01414E+06 0.00196788
3.01897E+06 0.00196716
3.02302E+06 0.00196655
3.02829E+06 0.00196576
3.03533E+06 0.00196470
3.04294E+06 0.00196356
3.04513E+06 0.00196323
3.04731E+06 0.00196290
3.04895E+06 0.00196266
3.05004E+06 0.00196249
3.05442E+06 0.00196184
3.05716E+06 0.00196143
3.05937E+06 0.00196110
3.06156E+06 0.00196077
3.06542E+06 0.00196019
3.07309E+06 0.00195904
3.08223E+06 0.00195767
3.08974E+06 0.00195654
3.09309E+06 0.00195604
3.09729E+06 0.00195541
3.10402E+06 0.00195440
3.10993E+06 0.00195351
3.11330E+06 0.00195301
3.11507E+06 0.00195274
3.12951E+06 0.00195057
3.13635E+06 0.00194955
3.14064E+06 0.00194890
3.15182E+06 0.00194723
3.16217E+06 0.00194568
3.16999E+06 0.00194450
3.18045E+06 0.00194293
3.18482E+06 0.00194228
3.18920E+06 0.00194162
3.19359E+06 0.00194096
3.19976E+06 0.00194004
3.21302E+06 0.00193805
3.22280E+06 0.00193658
3.22726E+06 0.00193591
3.23711E+06 0.00193443
3.24340E+06 0.00193349
3.25152E+06 0.00193227
3.26784E+06 0.00192982
3.27512E+06 0.00192873
3.27787E+06 0.00192832
3.28886E+06 0.00192667
3.30084E+06 0.00192487
3.30732E+06 0.00192390
3.31195E+06 0.00192321
3.31753E+06 0.00192237
3.32218E+06 0.00192167
3.32405E+06 0.00192139
3.33155E+06 0.00192027
3.33623E+06 0.00191957
3.33904E+06 0.00191914
3.34187E+06 0.00191872
3.34847E+06 0.00191773
3.35414E+06 0.00191688
3.35887E+06 0.00191617
3.36362E+06 0.00191546
3.36647E+06 0.00191503
3.38366E+06 0.00191245
3.38847E+06 0.00191173
3.39810E+06 0.00191029
3.40390E+06 0.00190942
3.41359E+06 0.00190796
3.41942E+06 0.00190709
3.42137E+06 0.00190680
3.42577E+06 0.00190614
3.43189E+06 0.00190522
3.44826E+06 0.00190276
3.45651E+06 0.00190152
3.47308E+06 0.00189904
3.48140E+06 0.00189779
3.48307E+06 0.00189754
3.49310E+06 0.00189604
3.50000E+06 0.00189500
3.52178E+06 0.00189173
3.52857E+06 0.00189072
3.54737E+06 0.00188790
3.55596E+06 0.00188661
3.56647E+06 0.00188503
3.58558E+06 0.00188216
3.59781E+06 0.00188033
3.61365E+06 0.00187795
3.63848E+06 0.00187423
3.64742E+06 0.00187289
3.67259E+06 0.00186911
3.68345E+06 0.00186748
3.69437E+06 0.00186585
3.70167E+06 0.00186475
3.71818E+06 0.00186227
3.73480E+06 0.00185978
3.75341E+06 0.00185699
3.75902E+06 0.00185615
3.77406E+06 0.00185389
3.79675E+06 0.00185049
3.83120E+06 0.00184532
3.83891E+06 0.00184416
3.85441E+06 0.00184184
3.86609E+06 0.00184009
3.87980E+06 0.00183803
3.89950E+06 0.00183508
3.90742E+06 0.00183389
3.92135E+06 0.00183180
3.93136E+06 0.00183030
3.94336E+06 0.00182850
4.00000E+06 0.00182000
4.00239E+06 0.00181976
4.02510E+06 0.00181749
4.04176E+06 0.00181582
4.05851E+06 0.00181415
4.07114E+06 0.00181289
4.08385E+06 0.00181162
4.11155E+06 0.00180885
4.12442E+06 0.00180756
4.13952E+06 0.00180605
4.15472E+06 0.00180453
4.16561E+06 0.00180344
4.18314E+06 0.00180169
4.20298E+06 0.00179970
4.23863E+06 0.00179614
4.26566E+06 0.00179343
4.28156E+06 0.00179184
4.29983E+06 0.00179002
4.31363E+06 0.00178864
4.32286E+06 0.00178771
4.33907E+06 0.00178609
4.34601E+06 0.00178540
4.35770E+06 0.00178423
4.37198E+06 0.00178280
4.41458E+06 0.00177854
4.43607E+06 0.00177639
4.45537E+06 0.00177446
4.46990E+06 0.00177301
4.48451E+06 0.00177155
4.50000E+06 0.00177000
4.51641E+06 0.00176836
4.55364E+06 0.00176464
4.63208E+06 0.00175679
4.66038E+06 0.00175396
4.67851E+06 0.00175215
4.68894E+06 0.00175111
4.69676E+06 0.00175032
4.70988E+06 0.00174901
4.72833E+06 0.00174717
4.73625E+06 0.00174638
4.74690E+06 0.00174531
4.77093E+06 0.00174291
4.80323E+06 0.00173968
4.84680E+06 0.00173532
4.86882E+06 0.00173312
4.87990E+06 0.00173201
4.89101E+06 0.00173090
4.90493E+06 0.00172951
4.91613E+06 0.00172839
4.94709E+06 0.00172529
4.96411E+06 0.00172359
4.99839E+06 0.00172016
5.00000E+06 0.00172000
5.00000E+06 0.00172000
5.03016E+06 0.00171337
5.05051E+06 0.00170889
5.08869E+06 0.00170049
5.27984E+06 0.00165844
5.46288E+06 0.00161817
5.50000E+06 0.00161000
5.73543E+06 0.00155821
6.00000E+06 0.00150000
6.02896E+06 0.00149363
6.50000E+06 0.00139000
6.54425E+06 0.00138027
6.96001E+06 0.00128880
7.00000E+06 0.00128000
7.41645E+06 0.00118838
7.50000E+06 0.00117000
7.94976E+06 0.00109300
7.94980E+06 0.00109299
8.00000E+06 0.00108440
8.00000E+06 0.00108440
8.01201E+06 0.00108234
8.50000E+06 0.000998800
8.50000E+06 0.000998800
8.76247E+06 0.000953865
9.00000E+06 0.000913200
9.00000E+06 0.000913200
9.44247E+06 0.000837450
9.44250E+06 0.000837444
9.50000E+06 0.000827600
9.50000E+06 0.000827600
9.53232E+06 0.000822067
1.00000E+07 0.000742000
1.00047E+07 0.000741572
1.00250E+07 0.000739725
1.00253E+07 0.000739700
1.08013E+07 0.000669082
1.10000E+07 0.000651000
1.13334E+07 0.000620661
1.20000E+07 0.000560000
1.23434E+07 0.000536374
1.30000E+07 0.000491200
1.40000E+07 0.000422400
1.42435E+07 0.000405647
1.45000E+07 0.000388000
1.50000E+07 0.000366667
1.60000E+07 0.000324000
1.61422E+07 0.000317933
1.70000E+07 0.000281333
1.75000E+07 0.000260000
1.78885E+07 0.000242440
1.80000E+07 0.000237400
1.90000E+07 0.000192200
1.93940E+07 0.000174391
2.00000E+07 0.000147001
2.00000E+07 0.00000
2.10000E+07 0.00000
2.20000E+07 0.00000
2.20861E+07 0.00000
2.29124E+07 0.00000
2.30000E+07 0.00000
2.30708E+07 0.00000
2.33159E+07 0.00000
2.40000E+07 0.00000
2.41422E+07 0.00000
2.42884E+07 0.00000
2.45539E+07 0.00000
2.50000E+07 0.00000
2.57294E+07 0.00000
2.60000E+07 0.00000
2.64724E+07 0.00000
2.65444E+07 0.00000
2.70000E+07 0.00000
2.80000E+07 0.00000
2.83601E+07 0.00000
2.84962E+07 0.00000
2.86757E+07 0.00000
2.90000E+07 0.00000
3.00000E+07 0.00000
3.10000E+07 0.00000
3.15931E+07 0.00000
3.20000E+07 0.00000
3.22207E+07 0.00000
3.25976E+07 0.00000
3.30000E+07 0.00000
3.40000E+07 0.00000
3.43234E+07 0.00000
3.46061E+07 0.00000
3.50000E+07 0.00000
3.51812E+07 0.00000
3.53764E+07 0.00000
3.53764E+07 0.00000
3.55581E+07 0.00000
3.60000E+07 0.00000
3.70000E+07 0.00000
3.70005E+07 0.00000
3.80000E+07 0.00000
3.90000E+07 0.00000
3.99248E+07 0.00000
4.00000E+07 0.00000
4.10000E+07 0.00000
4.10970E+07 0.00000
4.20000E+07 0.00000
4.30000E+07 0.00000
4.30000E+07 0.00000
4.34123E+07 0.00000
4.37386E+07 0.00000
4.40000E+07 0.00000
4.40000E+07 0.00000
4.48651E+07 0.00000
4.48651E+07 0.00000
4.49062E+07 0.00000
4.49062E+07 0.00000
4.50000E+07 0.00000
4.54251E+07 0.00000
4.60000E+07 0.00000
4.70000E+07 0.00000
4.78129E+07 0.00000
4.80000E+07 0.00000
4.80000E+07 0.00000
4.87813E+07 0.00000
4.87813E+07 0.00000
4.90000E+07 0.00000
4.90000E+07 0.00000
5.00000E+07 0.00000
5.01752E+07 0.00000
5.01752E+07 0.00000
5.10000E+07 0.00000
5.20000E+07 0.00000
5.20000E+07 0.00000
5.24370E+07 0.00000
5.30000E+07 0.00000
5.30000E+07 0.00000
5.40000E+07 0.00000
5.40000E+07 0.00000
5.43309E+07 0.00000
5.50000E+07 0.00000
5.60000E+07 0.00000
5.66093E+07 0.00000
5.66093E+07 0.00000
5.69541E+07 0.00000
5.69541E+07 0.00000
5.70000E+07 0.00000
5.70000E+07 0.00000
5.80000E+07 0.00000
5.80000E+07 0.00000
5.85227E+07 0.00000
5.85227E+07 0.00000
5.90000E+07 0.00000
5.90000E+07 0.00000
6.00000E+07 0.00000
6.10000E+07 0.00000
6.10000E+07 0.00000
6.20000E+07 0.00000
6.20000E+07 0.00000
6.30000E+07 0.00000
6.30000E+07 0.00000
6.40000E+07 0.00000
6.40000E+07 0.00000
6.50000E+07 0.00000
6.58433E+07 0.00000
6.58457E+07 0.00000
6.58457E+07 0.00000
6.60000E+07 0.00000
6.60000E+07 0.00000
6.70000E+07 0.00000
6.70000E+07 0.00000
6.73259E+07 0.00000
6.73259E+07 0.00000
6.77110E+07 0.00000
6.77110E+07 0.00000
6.80000E+07 0.00000
6.80000E+07 0.00000
6.90000E+07 0.00000
6.90000E+07 0.00000
7.00000E+07 0.00000
7.00000E+07 0.00000
7.10000E+07 0.00000
7.10000E+07 0.00000
7.20000E+07 0.00000
7.20000E+07 0.00000
7.30000E+07 0.00000
7.30000E+07 0.00000
7.40000E+07 0.00000
7.40000E+07 0.00000
7.50000E+07 0.00000
7.50000E+07 0.00000
7.60000E+07 0.00000
7.60000E+07 0.00000
7.70000E+07 0.00000
7.70000E+07 0.00000
7.80000E+07 0.00000
7.80000E+07 0.00000
7.90000E+07 0.00000
7.90000E+07 0.00000
8.00000E+07 0.00000
8.00000E+07 0.00000
8.10000E+07 0.00000
8.20000E+07 0.00000
8.20000E+07 0.00000
8.30000E+07 0.00000
8.30000E+07 0.00000
8.40000E+07 0.00000
8.40000E+07 0.00000
8.50000E+07 0.00000
8.50000E+07 0.00000
8.60000E+07 0.00000
8.60000E+07 0.00000
8.70000E+07 0.00000
8.70000E+07 0.00000
8.80000E+07 0.00000
8.80000E+07 0.00000
8.90000E+07 0.00000
8.90000E+07 0.00000
9.00000E+07 0.00000
9.00000E+07 0.00000
9.10000E+07 0.00000
9.10000E+07 0.00000
9.20000E+07 0.00000
9.20000E+07 0.00000
9.30000E+07 0.00000
9.30000E+07 0.00000
9.40000E+07 0.00000
9.40000E+07 0.00000
9.50000E+07 0.00000
9.50000E+07 0.00000
9.60000E+07 0.00000
9.60000E+07 0.00000
9.70000E+07 0.00000
9.70000E+07 0.00000
9.80000E+07 0.00000
9.80000E+07 0.00000
9.90000E+07 0.00000
9.90000E+07 0.00000
1.00000E+08 0.00000
1.02000E+08 0.00000
1.04000E+08 0.00000
1.06000E+08 0.00000
1.08000E+08 0.00000
1.10000E+08 0.00000
1.12000E+08 0.00000
1.14000E+08 0.00000
1.16000E+08 0.00000
1.18000E+08 0.00000
1.20000E+08 0.00000
1.22000E+08 0.00000
1.24000E+08 0.00000
1.26000E+08 0.00000
1.28000E+08 0.00000
1.30000E+08 0.00000
1.32000E+08 0.00000
1.34000E+08 0.00000
1.36000E+08 0.00000
1.38000E+08 0.00000
1.40000E+08 0.00000
1.42000E+08 0.00000
1.44000E+08 0.00000
1.46000E+08 0.00000
1.48000E+08 0.00000
1.50000E+08 0.00000