Nd-142(n,g) ENDF/B-VII.1
Energy(eV) XS(b)
1.00000E-05 942.800
1.25000E-05 843.265
1.50000E-05 769.792
2.00000E-05 666.659
2.75000E-05 568.529
3.50000E-05 503.946
4.25000E-05 457.323
5.00000E-05 421.631
6.25000E-05 377.118
7.50000E-05 344.259
0.000100000 298.137
0.000125000 266.661
0.000150000 243.426
0.000200000 210.812
0.000275000 179.780
0.000350000 159.357
0.000425000 144.613
0.000500000 133.325
0.000625000 119.248
0.000750000 108.857
0.00100000 94.2702
0.00125000 84.3157
0.00150000 76.9673
0.00200000 66.6522
0.00275000 56.8367
0.00350000 50.3764
0.00425000 45.7123
0.00500000 42.1414
0.00625000 37.6875
0.00750000 34.3993
0.0100000 29.7829
0.0125000 26.6317
0.0150000 24.3050
0.0200000 21.0378
0.0253000 18.6945
0.0314750 16.7499
0.0376500 15.3050
0.0500000 13.2640
0.0625000 11.8483
0.0750000 10.8019
0.100000 9.33048
0.125000 8.32384
0.150000 7.57896
0.200000 6.52976
0.275000 5.52576
0.350000 4.86052
0.500000 4.00487
0.750000 3.18847
1.00000 2.69333
1.50000 2.09409
2.00000 1.72896
2.75000 1.37539
3.50000 1.13991
5.00000 0.839146
7.50000 0.562892
10.0000 0.407631
12.5000 0.309414
15.0000 0.242728
20.0000 0.160103
27.5000 0.0963220
35.0000 0.0634865
42.5000 0.0445427
50.0000 0.0327195
62.5000 0.0210874
75.0000 0.0145566
87.5000 0.0105691
100.000 0.00797866
125.000 0.00496450
150.000 0.00337663
175.000 0.00248743
187.500 0.00223914
200.000 0.00224829
204.644 0.00247818
209.288 0.00326743
211.610 0.00441774
212.771 0.00558095
213.932 0.00772121
215.093 0.0123297
215.673 0.0169440
216.254 0.0253945
216.544 0.0325445
216.834 0.0435003
217.125 0.0615482
217.415 0.0944166
217.560 0.122094
217.705 0.164268
217.850 0.233206
217.995 0.357446
218.068 0.460936
218.140 0.616819
218.213 0.868259
218.285 1.31114
218.322 1.67231
218.358 2.20577
218.394 3.04071
218.431 4.44841
218.467 7.11305
218.485 9.43737
218.503 13.0614
218.521 19.2078
218.539 30.5495
218.549 40.1389
218.558 54.2650
218.567 76.1425
218.576 109.344
218.588 174.748
218.600 218.270
218.612 174.186
218.625 108.909
218.633 78.8843
218.641 58.3008
218.657 34.4284
218.673 22.2910
218.688 15.5131
218.704 11.3517
218.720 8.64738
218.752 5.48684
218.784 3.77785
218.816 2.75901
218.880 1.65437
218.944 1.10029
219.008 0.784288
219.072 0.587287
219.136 0.456451
219.263 0.298473
219.391 0.210598
219.519 0.156670
219.647 0.121267
219.902 0.0790960
220.158 0.0559071
220.413 0.0418099
220.669 0.0326076
221.180 0.0217298
221.691 0.0158005
222.712 0.00992247
223.734 0.00726304
224.756 0.00590947
226.800 0.00493982
228.844 0.00544306
230.888 0.00854895
231.910 0.0133069
232.421 0.0181521
232.932 0.0270773
233.443 0.0462558
233.698 0.0653756
233.954 0.100184
234.082 0.129456
234.209 0.173998
234.337 0.246743
234.465 0.377406
234.529 0.485951
234.593 0.649280
234.657 0.911474
234.720 1.37072
234.752 1.74397
234.784 2.29065
234.816 3.13959
234.848 4.56014
234.880 7.21052
234.896 9.47895
234.912 12.9510
234.928 18.6972
234.944 28.8993
234.960 49.1776
234.968 66.7553
234.976 92.1060
234.988 147.375
235.000 184.226
235.012 147.383
235.024 92.1153
235.032 66.2364
235.040 48.6503
235.049 36.7268
235.057 28.4763
235.073 18.3348
235.089 12.7129
235.105 9.27870
235.121 7.05500
235.154 4.46510
235.186 3.06941
235.218 2.23914
235.251 1.70331
235.283 1.33982
235.348 0.890476
235.412 0.634462
235.477 0.474967
235.542 0.368955
235.671 0.241242
235.801 0.170182
235.930 0.126624
236.059 0.0980288
236.318 0.0639531
236.577 0.0452111
237.094 0.0263627
237.612 0.0175349
238.130 0.0126990
239.165 0.00784087
241.235 0.00430074
243.305 0.00301718
247.445 0.00204090
251.585 0.00165518
259.866 0.00131651
268.146 0.00114906
301.268 0.000833576
367.512 0.000557332
433.756 0.000418718
500.000 0.000339506
568.188 0.000299073
602.282 0.000327795
619.329 0.000510343
627.852 0.00126931
632.114 0.00430440
633.179 0.00743468
634.245 0.0163036
634.778 0.0285834
635.310 0.0630598
635.577 0.110258
635.710 0.156773
635.843 0.240364
635.976 0.414440
636.043 0.582487
636.109 0.877801
636.143 1.11743
636.176 1.46998
636.209 2.01886
636.243 2.94067
636.276 4.66261
636.293 6.14745
636.309 8.43339
636.326 12.2454
636.342 19.0943
636.351 24.6957
636.359 32.8313
636.367 44.9050
636.376 62.7970
636.388 100.539
636.400 125.727
636.412 100.541
636.424 62.7993
636.434 42.3523
636.444 29.5243
636.454 21.4131
636.464 16.1027
636.483 9.93882
636.503 6.70524
636.522 4.80394
636.542 3.60897
636.581 2.24245
636.620 1.52513
636.659 1.10339
636.698 0.834887
636.737 0.653566
636.816 0.431581
636.894 0.306086
637.050 0.176835
637.207 0.115030
637.363 0.0808064
637.676 0.0461711
638.302 0.0209361
638.927 0.0119671
640.179 0.00549584
641.430 0.00321243
646.435 0.000994057
656.446 0.000431723
676.468 0.000284361
716.512 0.000237910
796.600 0.000214746
876.688 0.000211312
916.731 0.000236225
936.753 0.000345943
946.764 0.000787766
951.770 0.00254876
954.272 0.00951760
954.898 0.0166618
955.524 0.0367666
955.837 0.0643728
956.150 0.140840
956.306 0.243726
956.384 0.343570
956.462 0.520071
956.541 0.877354
956.580 1.21194
956.619 1.78027
956.658 2.86071
956.677 3.80934
956.697 5.29964
956.717 7.85259
956.736 12.6418
956.746 16.7580
956.756 23.0069
956.765 32.8092
956.775 48.0802
956.788 77.0531
956.800 96.1632
956.813 76.8068
956.825 48.0813
956.836 31.7094
956.846 21.7916
956.857 15.5934
956.867 11.6396
956.888 7.09876
956.909 4.74481
956.930 3.38327
956.952 2.52963
956.994 1.56514
957.036 1.06077
957.078 0.765607
957.162 0.452355
957.247 0.298127
957.331 0.211240
957.500 0.121901
957.837 0.0556486
958.174 0.0317821
958.849 0.0144152
959.523 0.00824782
962.222 0.00223259
967.619 0.000710992
978.413 0.000327925
1000.00 0.000232185
1059.49 0.000215087
1089.23 0.000248496
1104.10 0.000386770
1111.54 0.000938582
1115.26 0.00313102
1117.12 0.0117738
1117.58 0.0206082
1118.05 0.0452771
1118.28 0.0790862
1118.51 0.171480
1118.63 0.294069
1118.74 0.616354
1118.80 1.02181
1118.83 1.39249
1118.86 2.00582
1118.89 3.12594
1118.90 4.10564
1118.92 5.48833
1118.93 7.87085
1118.95 11.7014
1118.96 19.4210
1118.97 25.3884
1118.98 34.5419
1118.99 55.6815
1119.00 69.1912
1119.01 55.6821
1119.02 34.5426
1119.04 21.7343
1119.05 14.6539
1119.06 10.3773
1119.07 7.66994
1119.08 5.74035
1119.09 4.53436
1119.11 3.02228
1119.14 2.12126
1119.16 1.58746
1119.20 0.982685
1119.25 0.661599
1119.29 0.475338
1119.38 0.280535
1119.56 0.130476
1119.74 0.0753432
1120.10 0.0343284
1120.45 0.0196354
1121.88 0.00515029
1124.74 0.00145233
1130.46 0.000518180
1141.90 0.000283676
1164.77 0.000226181
1210.51 0.000215783
1302.00 0.000225885
1393.49 0.000248264
1439.23 0.000270683
1462.10 0.000310226
1473.54 0.000436883
1479.26 0.000923807
1482.12 0.00284420
1483.55 0.0103670
1484.26 0.0393071
1484.44 0.0681938
1484.62 0.145926
1484.71 0.248842
1484.80 0.510846
1484.84 0.835456
1484.89 1.57130
1484.91 2.40650
1484.93 3.98997
1484.94 5.40029
1484.95 7.63017
1484.96 11.3276
1484.98 18.1833
1484.99 29.1530
1485.00 36.2918
1485.01 29.1532
1485.02 18.1088
1485.04 10.9053
1485.05 7.14029
1485.06 4.81565
1485.07 3.51972
1485.10 2.05458
1485.12 1.35820
1485.17 0.699654
1485.22 0.428239
1485.32 0.206245
1485.42 0.121454
1485.62 0.0564481
1485.81 0.0325495
1486.60 0.00859981
1488.18 0.00239491
1491.34 0.000816953
1497.65 0.000421647
1510.27 0.000329120
1535.51 0.000323136
1585.99 0.000387171
1611.23 0.000469331
1636.47 0.000687227
1661.71 0.00181669
1668.02 0.00297744
1674.33 0.00628071
1677.49 0.0108870
1680.64 0.0239705
1682.22 0.0421569
1683.01 0.0603260
1683.80 0.0934621
1684.58 0.164223
1684.98 0.234528
1685.37 0.361607
1685.57 0.468555
1685.77 0.630039
1685.97 0.892015
1686.16 1.35898
1686.26 1.74570
1686.36 2.31684
1686.46 3.23283
1686.56 4.79796
1686.66 7.88319
1686.70 10.6324
1686.75 15.0905
1686.80 23.2105
1686.83 29.8949
1686.85 39.3228
1686.88 54.4791
1686.90 78.1745
1686.93 120.838
1686.95 195.467
1686.98 311.526
1687.00 391.021
1687.03 311.519
1687.05 195.464
1687.07 132.821
1687.09 93.9520
1687.11 68.9066
1687.13 52.2605
1687.16 32.6357
1687.20 22.1421
1687.24 15.8224
1687.28 11.9286
1687.36 7.45513
1687.43 5.06595
1687.51 3.67690
1687.59 2.77924
1687.66 2.18037
1687.81 1.44067
1687.97 1.02209
1688.12 0.762542
1688.27 0.591551
1688.58 0.384732
1688.88 0.270398
1689.49 0.154361
1690.11 0.0996789
1690.72 0.0697246
1691.94 0.0396588
1694.38 0.0179504
1696.83 0.0102916
1701.72 0.00479290
1706.61 0.00286150
1716.39 0.00148124
1726.17 0.00100086
1745.73 0.000665762
1765.29 0.000558126
1804.41 0.000503881
1843.53 0.000512617
1921.76 0.000593982
2000.00 0.000738666
2107.74 0.00109715
2161.61 0.00140667
2215.48 0.00188845
2269.35 0.00269892
2323.22 0.00422681
2350.16 0.00556342
2377.09 0.00770110
2404.03 0.0116252
2417.49 0.0159750
2420.86 0.0184459
2424.23 0.0239603
2425.91 0.0308271
2427.60 0.0493555
2428.44 0.0745591
2429.28 0.144713
2429.70 0.240565
2429.91 0.335259
2430.12 0.504749
2430.33 0.859407
2430.44 1.20045
2430.54 1.79931
2430.65 2.99880
2430.70 4.12269
2430.75 5.97206
2430.80 9.49191
2430.83 12.4594
2430.86 17.0311
2430.88 24.9340
2430.91 38.7359
2430.92 49.9789
2430.94 66.2533
2430.95 90.3204
2430.96 127.540
2430.98 205.121
2431.00 255.081
2431.02 205.120
2431.04 127.539
2431.06 72.6701
2431.08 44.2920
2431.11 29.2512
2431.13 20.8764
2431.15 15.3934
2431.17 11.9212
2431.22 7.66369
2431.27 5.28989
2431.31 3.89205
2431.40 2.35916
2431.49 1.57668
2431.58 1.13322
2431.76 0.667690
2431.94 0.442759
2432.12 0.317289
2432.49 0.189854
2433.21 0.0962568
2433.93 0.0630538
2435.38 0.0393802
2436.83 0.0314198
2439.72 0.0265704
2442.61 0.0258551
2445.51 0.0264573
2448.40 0.0276952
2451.29 0.0293533
2454.18 0.0313624
2457.08 0.0337133
2459.97 0.0364254
2465.76 0.0431250
2471.54 0.0520421
2477.33 0.0641675
2483.12 0.0811822
2488.90 0.106050
2494.69 0.144409
2500.48 0.207941
2503.37 0.256570
2506.26 0.324183
2509.16 0.421888
2512.05 0.569901
2514.94 0.807693
2517.83 1.21843
2519.28 1.54018
2520.73 1.98882
2522.17 2.62355
2523.62 3.51463
2526.06 5.61747
2528.50 7.01132
2530.94 5.60345
2533.38 3.50112
2536.26 1.98331
2539.14 1.21585
2542.02 0.806052
2544.91 0.568571
2547.79 0.420630
2550.67 0.322988
2556.43 0.206826
2562.19 0.143326
2567.96 0.105012
2579.48 0.0631741
2591.01 0.0420857
2602.53 0.0300091
2614.06 0.0224620
2625.58 0.0174362
2648.63 0.0113720
2671.68 0.00799580
2694.73 0.00592714
2717.78 0.00456982
2763.88 0.00295791
2809.98 0.00207584
2856.08 0.00154304
2902.18 0.00119826
2994.37 0.000799180
3086.57 0.000597664
3178.77 0.000522261
3224.87 0.000595937
3247.92 0.000916677
3259.45 0.00213224
3265.21 0.00690005
3268.09 0.0256999
3268.81 0.0449814
3269.53 0.0991414
3269.89 0.173410
3270.25 0.378868
3270.43 0.654801
3270.52 0.922142
3270.61 1.39388
3270.70 2.34609
3270.75 3.23510
3270.79 4.74018
3270.84 7.58702
3270.86 10.1338
3270.88 13.9588
3270.90 20.7361
3270.93 32.8164
3270.94 44.0462
3270.95 59.6351
3270.96 83.5478
3270.97 122.466
3270.99 194.618
3271.00 244.937
3271.02 194.618
3271.03 122.467
3271.04 78.3867
3271.06 53.2052
3271.07 36.9402
3271.08 27.4712
3271.11 16.4345
3271.14 10.8540
3271.16 7.67728
3271.19 5.70732
3271.24 3.52928
3271.30 2.37759
3271.35 1.71861
3271.46 1.01257
3271.67 0.470315
3271.89 0.271224
3272.32 0.123611
3272.75 0.0705718
3273.60 0.0320440
3274.46 0.0183828
3277.89 0.00508563
3284.75 0.00175409
3298.48 0.00100003
3312.20 0.00100039
3325.93 0.00124139
3339.65 0.00186199
3346.52 0.00250523
3353.38 0.00369606
3356.81 0.00470911
3360.24 0.00626669
3363.67 0.00884067
3367.10 0.0135510
3368.82 0.0175326
3370.54 0.0236252
3372.25 0.0336478
3373.97 0.0518534
3374.82 0.0671448
3375.68 0.0904102
3376.54 0.128333
3377.40 0.196293
3378.26 0.337355
3378.68 0.473003
3378.79 0.520081
3378.90 0.574001
3379.11 0.710347
3379.33 0.902632
3379.54 1.18302
3379.65 1.37667
3379.76 1.61917
3379.86 1.93132
3379.97 2.34230
3380.08 2.90418
3380.19 3.68305
3380.29 4.81523
3380.40 6.54393
3380.51 9.35169
3380.61 14.2790
3380.67 18.2411
3380.72 23.7440
3380.78 31.8090
3380.83 43.1368
3380.91 69.0777
3381.00 86.3948
3381.09 69.0735
3381.17 43.1327
3381.25 28.1564
3381.32 19.1343
3381.40 13.6197
3381.47 10.1390
3381.62 6.15692
3381.77 4.10456
3381.92 2.92171
3382.07 2.18189
3382.37 1.34649
3382.66 0.911862
3382.96 0.657789
3383.26 0.496676
3383.56 0.388196
3384.15 0.255786
3384.75 0.181156
3385.35 0.135007
3385.94 0.104500
3387.13 0.0679305
3388.33 0.0477189
3389.52 0.0353774
3390.71 0.0272936
3393.10 0.0176959
3395.48 0.0124370
3397.86 0.00924489
3400.25 0.00716447
3405.02 0.00470572
3409.79 0.00336352
3414.56 0.00255121
3419.32 0.00202244
3428.86 0.00139800
3438.40 0.00105695
3457.47 0.000715130
3476.55 0.000554902
3495.63 0.000466791
3533.78 0.000378363
3610.08 0.000320457
3686.38 0.000320062
3762.68 0.000366222
3800.83 0.000420431
3838.98 0.000521422
3877.13 0.000736247
3896.21 0.000948674
3915.29 0.00133461
3924.82 0.00165977
3934.36 0.00215742
3943.90 0.00297688
3953.44 0.00447283
3958.21 0.00573596
3962.97 0.00766973
3967.74 0.0108503
3972.51 0.0166361
3974.90 0.0215019
3977.28 0.0289121
3979.67 0.0410206
3982.05 0.0628117
3984.43 0.108263
3985.63 0.152208
3986.22 0.184980
3986.82 0.229600
3987.41 0.292536
3987.71 0.334165
3988.01 0.385331
3988.31 0.449175
3988.61 0.530232
3988.90 0.635253
3989.20 0.774625
3989.50 0.964968
3989.80 1.23417
3990.10 1.63177
3990.39 2.25208
3990.69 3.29082
3990.84 4.08930
3990.99 5.19832
3991.14 6.78589
3991.29 9.13028
3991.44 12.6817
3991.59 18.0667
3991.79 28.9056
3992.00 36.1295
3992.21 28.9018
3992.41 18.0631
3992.56 12.6495
3992.71 9.08966
3992.86 6.74566
3993.01 5.16157
3993.31 3.26229
3993.61 2.23019
3993.91 1.61469
3994.21 1.22057
3994.81 0.765475
3995.41 0.523677
3996.01 0.380406
3996.61 0.288698
3997.21 0.226608
3998.41 0.150141
3999.61 0.106773
4000.81 0.0798026
4002.01 0.0619261
4004.41 0.0404241
4006.81 0.0284870
4009.21 0.0211822
4011.61 0.0163904
4016.41 0.0106950
4021.20 0.00757108
4026.00 0.00567594
4030.80 0.00444159
4040.40 0.00298784
4049.99 0.00220144
4069.19 0.00143796
4088.38 0.00112433
4107.57 0.00105003
4117.17 0.00114010
4126.77 0.00151292
4136.36 0.00370194
4141.16 0.0124715
4143.56 0.0468817
4144.16 0.0818541
4144.76 0.179165
4145.06 0.310825
4145.36 0.667506
4145.51 1.13375
4145.58 1.57464
4145.66 2.33165
4145.73 3.79494
4145.77 5.12013
4145.81 7.19538
4145.85 10.9316
4145.88 18.0798
4145.90 24.6285
4145.92 34.3753
4145.94 51.3004
4145.96 77.9985
4145.98 124.801
4146.00 156.003
4146.02 124.800
4146.04 77.9983
4146.07 45.9469
4146.09 29.4843
4146.11 20.1670
4146.13 14.5407
4146.15 10.9319
4146.18 8.49652
4146.22 5.53459
4146.26 3.88006
4146.31 2.86673
4146.40 1.74468
4146.48 1.17144
4146.57 0.840194
4146.75 0.492330
4147.10 0.227830
4147.45 0.131150
4148.16 0.0598554
4148.86 0.0343179
4151.68 0.00924529
4157.32 0.00286151
4168.60 0.00124839
4191.16 0.000857412
4236.28 0.000857322
4281.39 0.00105540
4326.51 0.00146266
4371.63 0.00231103
4394.18 0.00310400
4416.74 0.00444000
4439.30 0.00694955
4461.86 0.0125403
4467.50 0.0150299
4470.32 0.0165658
4473.14 0.0183516
4475.96 0.0204458
4478.78 0.0229230
4481.60 0.0258823
4484.42 0.0294558
4487.24 0.0338290
4490.06 0.0392572
4492.88 0.0461088
4495.70 0.0549259
4498.52 0.0665553
4501.34 0.0823822
4504.16 0.105338
4505.57 0.124195
4506.27 0.150080
4506.62 0.219401
4506.80 0.441594
4506.89 1.07956
4506.93 2.48700
4506.95 4.60918
4506.98 10.3427
4506.99 16.7025
4507.00 20.5504
4507.01 16.7028
4507.02 10.3434
4507.04 6.04813
4507.05 3.71605
4507.08 1.78586
4507.14 0.738497
4507.26 0.323537
4507.50 0.193941
4507.97 0.163526
4508.91 0.169689
4510.80 0.208227
4512.69 0.265735
4514.58 0.350636
4516.47 0.481431
4518.35 0.693738
4520.24 1.05803
4522.13 1.69924
4524.07 2.71673
4526.00 3.39306
4527.94 2.71371
4529.87 1.69631
4531.71 1.06879
4533.54 0.707073
4535.38 0.493586
4537.22 0.360995
4540.89 0.214723
4544.56 0.141336
4548.24 0.0997561
4551.91 0.0740521
4559.25 0.0453476
4566.60 0.0305700
4573.95 0.0219908
4581.29 0.0165771
4588.64 0.0129458
4603.33 0.00853021
4618.02 0.00605191
4632.71 0.00452409
4647.40 0.00351682
4676.79 0.00231401
4706.17 0.00165163
4735.55 0.00124949
4764.94 0.000988219
4823.70 0.000684477
4882.47 0.000529540
4941.23 0.000459657
4970.62 0.000459807
5000.00 0.000521064
5027.98 0.000915115
5041.97 0.00249501
5048.97 0.00875480
5052.46 0.0334386
5053.34 0.0587127
5054.21 0.129574
5054.65 0.226491
5055.09 0.493511
5055.30 0.851453
5055.41 1.19523
5055.52 1.79798
5055.63 3.01847
5055.69 4.15335
5055.74 6.01999
5055.80 9.56379
5055.82 12.5478
5055.85 17.1369
5055.88 25.0352
5055.91 38.7884
5055.93 66.0399
5055.95 90.7968
5055.96 126.108
5055.98 202.771
5056.00 252.222
5056.02 202.770
5056.04 126.107
5056.06 73.7518
5056.09 46.6645
5056.11 31.0949
5056.13 22.3134
5056.15 16.5154
5056.18 12.8219
5056.22 8.26758
5056.27 5.75692
5056.31 4.23300
5056.40 2.57250
5056.49 1.71872
5056.58 1.22846
5056.76 0.718408
5057.12 0.331571
5057.48 0.190183
5058.19 0.0863417
5058.91 0.0492032
5061.78 0.0127948
5067.53 0.00354711
5079.01 0.00124492
5101.98 0.000815790
5124.96 0.00155347
5136.44 0.00487729
5139.31 0.00831652
5142.19 0.0180520
5143.62 0.0315212
5145.06 0.0692321
5145.77 0.120746
5146.13 0.171405
5146.49 0.262313
5146.85 0.450811
5147.03 0.632680
5147.21 0.949018
5147.39 1.58254
5147.48 2.16627
5147.57 3.12598
5147.66 4.91286
5147.70 6.42914
5147.75 8.68356
5147.79 12.4120
5147.84 18.9549
5147.88 31.5168
5147.91 41.8103
5147.93 56.8006
5147.96 91.1358
5148.00 113.609
5148.04 91.1344
5148.07 56.7998
5148.11 36.6738
5148.14 24.5714
5148.17 17.3084
5148.20 12.7388
5148.27 7.63992
5148.34 5.08273
5148.40 3.59604
5148.47 2.67378
5148.60 1.64592
5148.73 1.10993
5148.86 0.800195
5149.12 0.471920
5149.39 0.310402
5149.65 0.219850
5150.17 0.126732
5151.22 0.0578324
5152.27 0.0330907
5154.38 0.0150995
5156.48 0.00871965
5160.68 0.00412078
5164.88 0.00250036
5181.68 0.000934939
5198.49 0.000655718
5215.29 0.000573571
5248.90 0.000566373
5282.51 0.000656673
5316.12 0.000854981
5349.73 0.00127995
5366.53 0.00170072
5383.34 0.00252536
5391.74 0.00336945
5400.14 0.00526733
5408.54 0.0136731
5410.64 0.0218872
5412.74 0.0447822
5413.79 0.0762804
5414.84 0.164194
5415.37 0.283952
5415.63 0.401817
5415.89 0.612155
5416.16 1.04898
5416.29 1.46638
5416.42 2.19356
5416.55 3.64801
5416.62 4.98408
5416.68 7.16173
5416.75 11.2059
5416.78 14.6171
5416.81 19.6069
5416.85 27.8392
5416.88 42.0939
5416.91 68.9136
5416.94 121.084
5416.97 193.039
5417.00 242.174
5417.03 193.037
5417.06 121.083
5417.09 71.2028
5417.12 45.1105
5417.15 30.2152
5417.18 21.6811
5417.21 16.0987
5417.24 12.4931
5417.30 8.12192
5417.36 5.65657
5417.42 4.16008
5417.54 2.52619
5417.66 1.68933
5417.78 1.21174
5418.03 0.709431
5418.27 0.465900
5418.51 0.329752
5419.00 0.191115
5419.97 0.0890692
5420.94 0.0526911
5422.88 0.0265186
5424.83 0.0174859
5428.71 0.0115359
5432.60 0.0101517
5440.37 0.0113432
5448.14 0.0159179
5452.03 0.0200270
5455.92 0.0263029
5457.86 0.0307155
5459.80 0.0364036
5461.74 0.0438970
5462.72 0.0485675
5463.69 0.0540331
5464.66 0.0604970
5465.63 0.0681989
5466.60 0.0774935
5467.57 0.0888231
5468.55 0.102853
5469.52 0.120467
5470.49 0.143032
5471.46 0.172502
5472.43 0.212047
5473.40 0.266611
5474.37 0.344835
5475.35 0.461788
5476.32 0.646749
5477.29 0.958288
5477.77 1.19685
5478.26 1.52214
5478.75 1.97185
5479.23 2.58625
5480.12 4.13844
5481.00 5.17282
5481.89 4.13671
5482.77 2.58457
5483.69 1.56073
5484.61 1.00114
5485.53 0.683974
5486.45 0.492799
5487.37 0.370156
5488.29 0.287561
5490.13 0.187200
5491.97 0.131175
5493.82 0.0968985
5497.50 0.0589921
5501.18 0.0396397
5504.86 0.0284670
5508.54 0.0214408
5512.22 0.0167382
5519.58 0.0110320
5526.95 0.00783475
5534.31 0.00586485
5541.67 0.00456624
5556.40 0.00301445
5571.12 0.00215836
5585.85 0.00163721
5600.57 0.00129724
5630.02 0.000897759
5659.47 0.000685049
5718.37 0.000496807
5777.27 0.000468888
5806.72 0.000510113
5836.17 0.000612648
5865.62 0.000841045
5880.35 0.00105553
5895.07 0.00141082
5909.80 0.00205476
5917.16 0.00259121
5924.52 0.00339997
5931.89 0.00470329
5939.25 0.00701615
5942.93 0.00893678
5946.61 0.0119213
5950.29 0.0178842
5952.13 0.0282232
5953.05 0.0585757
5953.51 0.165941
5953.74 0.535676
5953.86 1.65455
5953.92 4.36444
5953.94 8.94252
5953.96 13.8253
5953.97 23.3617
5953.99 36.8857
5954.00 46.6159
5954.01 36.8858
5954.03 23.2764
5954.04 12.9392
5954.06 7.77376
5954.10 3.56470
5954.16 1.30474
5954.30 0.411977
5954.57 0.131097
5955.11 0.0535139
5956.18 0.0360234
5958.34 0.0403206
5962.65 0.0821911
5963.73 0.104596
5964.81 0.137733
5965.35 0.160585
5965.89 0.189647
5966.43 0.227369
5966.97 0.277533
5967.51 0.346362
5968.05 0.443862
5968.59 0.588455
5969.12 0.815305
5969.39 0.980318
5969.66 1.19821
5969.93 1.49552
5970.20 1.90993
5970.47 2.51101
5970.74 3.40595
5971.01 4.78746
5971.28 6.91071
5971.64 11.0588
5972.00 13.8243
5972.36 11.0571
5972.72 6.90906
5972.97 4.92129
5973.22 3.59070
5973.46 2.69366
5973.71 2.08037
5974.21 1.33105
5974.70 0.917823
5975.19 0.668101
5975.69 0.507267
5976.68 0.319909
5977.67 0.219565
5978.66 0.159903
5979.65 0.121584
5980.63 0.0955396
5982.61 0.0634310
5984.59 0.0451710
5986.57 0.0338044
5988.55 0.0262540
5992.50 0.0171621
5996.46 0.0121083
6000.42 0.00901132
6004.37 0.00697834
6012.29 0.00455898
6020.20 0.00322942
6028.11 0.00242148
6036.03 0.00189431
6051.85 0.00127178
6067.68 0.000933718
6083.50 0.000732204
6099.33 0.000605724
6130.98 0.000480417
6162.63 0.000496248
6178.46 0.000613175
6194.29 0.00100950
6210.11 0.00325327
6218.03 0.0122201
6220.00 0.0214459
6221.98 0.0474849
6222.97 0.0833794
6223.96 0.183480
6224.46 0.319518
6224.70 0.452312
6224.95 0.688982
6225.20 1.17728
6225.32 1.64264
6225.44 2.43998
6225.57 4.00983
6225.63 5.42705
6225.69 7.69152
6225.75 11.7838
6225.78 15.1370
6225.82 20.0879
6225.85 27.7650
6225.88 40.3725
6225.91 62.3459
6225.94 100.934
6225.97 160.974
6226.00 201.877
6226.03 160.972
6226.06 100.934
6226.08 71.5477
6226.10 52.3007
6226.13 39.3408
6226.15 30.4203
6226.19 19.5137
6226.23 13.4699
6226.27 9.74969
6226.32 7.41228
6226.40 4.68475
6226.48 3.20771
6226.57 2.33936
6226.74 1.39617
6226.91 0.926135
6227.08 0.658776
6227.41 0.382468
6227.75 0.249240
6228.09 0.175211
6228.76 0.100194
6230.11 0.0453262
6231.47 0.0257821
6234.17 0.0116620
6236.87 0.00667585
6247.68 0.00182605
6269.29 0.000592810
6290.90 0.000354758
6312.52 0.000266008
6355.75 0.000195350
6398.97 0.000166212
6485.43 0.000143086
6571.88 0.000140132
6658.34 0.000155661
6701.57 0.000176147
6744.79 0.000216000
6788.02 0.000303323
6809.64 0.000390913
6831.25 0.000551175
6842.06 0.000686673
6852.86 0.000894422
6863.67 0.00123700
6874.48 0.00186327
6879.88 0.00239266
6885.29 0.00320388
6890.69 0.00454070
6896.09 0.00697980
6898.79 0.00903730
6901.50 0.0121832
6904.20 0.0173476
6906.90 0.0267137
6908.25 0.0345667
6909.60 0.0464978
6910.95 0.0659101
6912.30 0.100630
6913.65 0.172394
6914.33 0.241182
6915.00 0.360804
6915.17 0.404718
6915.34 0.457135
6915.68 0.597671
6916.02 0.813990
6916.19 0.968657
6916.36 1.17006
6916.52 1.44238
6916.69 1.82015
6916.86 2.36420
6917.03 3.17854
6917.20 4.48393
6917.37 6.71576
6917.45 8.45790
6917.54 10.8381
6917.62 14.1604
6917.71 18.7648
6917.85 30.0576
6918.00 37.5150
6918.15 29.9747
6918.30 18.7633
6918.40 13.3942
6918.50 9.80745
6918.60 7.36625
6918.70 5.70246
6918.90 3.65641
6919.10 2.52733
6919.30 1.84119
6919.50 1.39982
6919.90 0.883850
6920.30 0.607275
6920.70 0.442453
6921.10 0.336525
6921.50 0.264495
6922.31 0.175691
6923.11 0.125143
6923.91 0.0936793
6924.71 0.0727861
6926.32 0.0476489
6927.92 0.0337292
6929.53 0.0252614
6931.13 0.0197837
6934.34 0.0136552
6937.55 0.0116103
6940.75 0.0181062
6942.36 0.0512875
6943.16 0.179548
6943.36 0.305921
6943.56 0.639850
6943.66 1.07054
6943.76 2.12772
6943.81 3.35800
6943.86 6.03052
6943.89 8.69788
6943.91 13.4718
6943.94 22.9295
6943.95 31.5507
6943.96 43.8187
6943.98 69.7333
6944.00 87.6337
6944.02 69.7331
6944.04 43.8187
6944.06 27.8133
6944.07 18.3005
6944.09 12.7253
6944.11 9.43284
6944.14 5.57007
6944.18 3.68906
6944.25 1.93309
6944.32 1.18463
6944.46 0.575869
6944.61 0.340105
6945.17 0.0940061
6946.31 0.0273163
6948.58 0.00948267
6953.12 0.00424320
6957.66 0.00285183
6962.21 0.00216031
6971.29 0.00143573
6980.37 0.00105593
6998.54 0.000675127
7016.71 0.000497082
7034.88 0.000403043
7053.05 0.000352011
7089.38 0.000322662
7125.72 0.000376479
7143.88 0.000455122
7162.05 0.000611771
7171.14 0.000748445
7180.22 0.000960858
7189.30 0.00131445
7198.39 0.00196520
7202.93 0.00251718
7207.47 0.00336487
7212.01 0.00476379
7216.56 0.00731968
7218.83 0.00947631
7221.10 0.0127737
7223.37 0.0181847
7225.64 0.0279927
7226.78 0.0362081
7227.91 0.0486612
7229.05 0.0688996
7230.18 0.104987
7231.32 0.179235
7231.89 0.249961
7232.45 0.372116
7232.74 0.469869
7233.02 0.611580
7233.31 0.827861
7233.45 0.981268
7233.59 1.17938
7233.73 1.44519
7233.87 1.80994
7234.01 2.32793
7234.16 3.09465
7234.30 4.28771
7234.44 6.25683
7234.58 9.71420
7234.65 12.3924
7234.72 15.9229
7234.86 25.5268
7235.00 31.8732
7235.14 25.4519
7235.28 15.9217
7235.38 11.1609
7235.48 8.05201
7235.58 5.97772
7235.68 4.58668
7235.87 2.90448
7236.07 1.98803
7236.27 1.44058
7236.47 1.08962
7236.87 0.683892
7237.27 0.468086
7237.67 0.340122
7238.06 0.258170
7238.46 0.202702
7239.26 0.134297
7240.05 0.0954608
7240.85 0.0713260
7241.64 0.0553303
7243.24 0.0360692
7244.83 0.0253795
7246.42 0.0188350
7248.01 0.0145401
7251.19 0.00943136
7254.37 0.00662580
7257.56 0.00492152
7260.74 0.00380970
7267.11 0.00249466
7273.47 0.00177667
7279.84 0.00134220
7286.20 0.00105967
7298.93 0.000726966
7311.66 0.000546492
7337.13 0.000369024
7362.59 0.000290569
7388.05 0.000252953
7438.97 0.000235824
7489.90 0.000278387
7515.36 0.000336259
7540.82 0.000449666
7566.28 0.000700530
7579.01 0.000954055
7591.74 0.00142037
7598.11 0.00181597
7604.48 0.00242357
7610.84 0.00342700
7617.21 0.00526176
7620.39 0.00681174
7623.57 0.00918412
7626.76 0.0130831
7629.94 0.0201632
7631.53 0.0261074
7633.12 0.0351398
7634.71 0.0498481
7636.30 0.0762095
7637.89 0.130815
7639.49 0.274594
7639.88 0.348315
7640.28 0.456086
7640.68 0.622432
7641.08 0.897487
7641.28 1.10860
7641.47 1.40254
7641.67 1.82789
7641.87 2.47340
7642.07 3.51288
7642.17 4.28660
7642.27 5.31420
7642.37 6.73743
7642.47 8.70857
7642.57 11.4991
7642.67 15.4258
7642.83 24.7105
7643.00 30.8502
7643.17 24.6499
7643.33 15.4245
7643.48 9.99505
7643.63 6.75340
7643.78 4.78689
7643.92 3.54610
7644.22 2.14222
7644.51 1.42352
7644.81 1.01109
7645.10 0.753895
7645.69 0.464291
7646.29 0.313829
7646.88 0.226208
7647.47 0.170706
7648.06 0.133364
7649.24 0.0877946
7650.42 0.0621578
7651.60 0.0463017
7652.78 0.0358342
7655.14 0.0232943
7657.50 0.0163598
7659.86 0.0121273
7662.22 0.00935590
7666.94 0.00606758
7671.67 0.00426556
7676.39 0.00317250
7681.11 0.00246015
7690.55 0.00161866
7700.00 0.00115973
7709.44 0.000882344
7718.88 0.000702087
7737.77 0.000490030
7756.66 0.000375147
7794.43 0.000262301
7832.21 0.000212328
7869.98 0.000187967
7945.53 0.000173731
8021.08 0.000188192
8096.63 0.000245568
8134.41 0.000319080
8153.29 0.000387388
8172.18 0.000505622
8191.07 0.000746158
8200.51 0.000979009
8209.96 0.00139726
8214.68 0.00174734
8219.40 0.00228099
8224.12 0.00315655
8228.84 0.00474906
8231.20 0.00609027
8233.57 0.00813913
8235.93 0.0115000
8238.29 0.0175932
8239.47 0.0226998
8240.65 0.0304466
8241.83 0.0430508
8243.01 0.0655673
8244.19 0.112032
8244.78 0.156394
8245.37 0.233439
8245.67 0.295224
8245.96 0.385088
8246.26 0.522851
8246.55 0.749201
8246.70 0.921677
8246.85 1.15815
8246.99 1.49892
8247.14 2.00497
8247.29 2.80902
8247.44 4.15292
8247.51 5.18577
8247.58 6.59647
8247.66 8.54134
8247.73 11.1593
8247.87 17.8406
8248.00 22.2887
8248.14 17.8399
8248.27 11.1586
8248.42 6.46405
8248.58 4.03529
8248.73 2.70797
8248.88 1.92643
8249.03 1.43421
8249.18 1.10652
8249.49 0.713450
8249.79 0.496305
8250.10 0.365055
8250.70 0.220925
8251.31 0.147775
8251.92 0.105802
8252.53 0.0794530
8253.14 0.0618931
8254.36 0.0406272
8255.57 0.0287467
8256.79 0.0214456
8258.01 0.0166450
8260.44 0.0109178
8262.87 0.00776787
8265.31 0.00585492
8267.74 0.00460945
8272.61 0.00314500
8277.48 0.00235812
8287.21 0.00160874
8296.95 0.00131318
8306.68 0.00121600
8326.15 0.00136219
8335.89 0.00160365
8345.62 0.00201837
8355.36 0.00273575
8365.09 0.00407011
8369.96 0.00519970
8374.83 0.00692341
8379.69 0.00973906
8384.56 0.0147971
8386.99 0.0189923
8389.43 0.0252960
8391.86 0.0353953
8394.30 0.0530600
8395.51 0.0673374
8396.73 0.0882562
8397.34 0.102578
8397.95 0.120643
8398.56 0.143949
8399.16 0.174604
8399.77 0.216165
8400.38 0.274183
8400.99 0.358740
8401.60 0.487796
8402.21 0.698129
8402.51 0.855096
8402.81 1.06753
8403.12 1.36190
8403.42 1.77923
8403.73 2.38057
8404.03 3.24304
8404.52 5.18710
8405.00 6.48215
8405.49 5.18633
8405.97 3.24230
8406.34 2.22560
8406.71 1.57345
8407.09 1.15327
8407.46 0.874151
8408.20 0.545371
8408.95 0.369770
8409.69 0.266232
8410.43 0.200454
8411.92 0.125073
8413.41 0.0853077
8414.90 0.0618544
8416.39 0.0468901
8417.87 0.0367742
8420.85 0.0243599
8423.83 0.0173307
8426.80 0.0129702
8429.78 0.0100818
8435.73 0.00661152
8441.68 0.00468687
8447.63 0.00350943
8453.58 0.00273703
8465.48 0.00181869
8477.39 0.00131446
8489.29 0.00100834
8501.19 0.000808918
8525.00 0.000574462
8548.80 0.000448906
8596.41 0.000333953
8644.02 0.000306083
8691.64 0.000363499
8715.44 0.000476226
8739.25 0.000816766
8751.15 0.00129865
8763.05 0.00267394
8769.00 0.00459034
8774.95 0.0100165
8777.93 0.0175255
8779.42 0.0249979
8780.91 0.0385764
8782.39 0.0673570
8783.14 0.0956865
8783.88 0.146579
8784.25 0.188800
8784.63 0.252285
8785.00 0.354101
8785.37 0.532575
8785.74 0.889024
8785.93 1.21798
8786.11 1.76779
8786.30 2.78727
8786.39 3.65638
8786.49 4.99175
8786.58 7.17960
8786.67 11.0676
8786.76 18.6767
8786.81 25.1165
8786.86 34.4222
8786.93 55.0786
8787.00 68.8499
8787.07 55.0772
8787.14 34.4213
8787.20 24.1326
8787.25 17.4625
8787.30 12.9609
8787.35 9.96586
8787.45 6.31783
8787.56 4.32745
8787.66 3.13732
8787.76 2.37382
8787.97 1.49061
8788.17 1.02054
8788.38 0.741694
8788.59 0.563059
8788.79 0.442364
8789.20 0.293084
8789.62 0.208323
8790.03 0.155643
8790.44 0.120760
8791.26 0.0786961
8792.09 0.0553605
8793.73 0.0316797
8795.38 0.0205208
8797.03 0.0143913
8800.32 0.00823646
8806.91 0.00379174
8813.50 0.00222296
8826.67 0.00109668
8839.85 0.000702051
8866.20 0.000424456
8892.55 0.000337803
8945.25 0.000374014
8971.60 0.000777785
8984.77 0.00243184
8991.36 0.00900373
8994.66 0.0348278
8996.30 0.134453
8996.71 0.234088
8997.13 0.504467
8997.33 0.860717
8997.54 1.78536
8997.64 2.92959
8997.74 5.63939
8997.80 8.67174
8997.85 14.6930
8997.87 20.3521
8997.90 29.2150
8997.92 45.1483
8997.95 73.0383
8997.97 116.408
8998.00 146.079
8998.03 116.408
8998.05 73.0381
8998.08 45.1483
8998.10 29.6738
8998.13 20.6286
8998.15 15.0422
8998.20 8.83322
8998.25 5.81210
8998.35 3.02776
8998.45 1.85601
8998.66 0.897728
8998.86 0.527067
8999.26 0.244630
8999.66 0.140688
9000.47 0.0639569
9001.27 0.0364671
9004.49 0.00942457
9010.92 0.00253609
9023.80 0.000796828
9049.54 0.000359982
9101.03 0.000255823
9204.00 0.000256298
9306.98 0.000304717
9409.95 0.000400232
9512.93 0.000594246
9564.42 0.000773540
9615.90 0.00107419
9667.39 0.00163833
9693.14 0.00212879
9718.88 0.00290347
9744.62 0.00423951
9770.37 0.00688108
9783.24 0.00935675
9796.11 0.0138121
9802.55 0.0178587
9805.77 0.0209835
9808.98 0.0256993
9812.20 0.0340833
9813.81 0.0415324
9815.42 0.0542193
9817.03 0.0797841
9817.83 0.104354
9818.64 0.147923
9819.44 0.237927
9819.84 0.324377
9820.25 0.476007
9820.65 0.779737
9820.85 1.06119
9821.05 1.53397
9821.25 2.41763
9821.35 3.18207
9821.45 4.35536
9821.55 6.32284
9821.65 9.85165
9821.70 12.8114
9821.75 17.0494
9821.80 23.3566
9821.85 32.8011
9821.93 52.4238
9822.00 65.5779
9822.07 52.4228
9822.15 32.8007
9822.22 20.0117
9822.29 12.9522
9822.37 8.91110
9822.44 6.45330
9822.52 4.86936
9822.59 3.79700
9822.74 2.48876
9822.89 1.75219
9823.04 1.30403
9823.33 0.806939
9823.63 0.552075
9823.92 0.405434
9824.52 0.251663
9825.11 0.177160
9825.70 0.135915
9826.89 0.0947848
9828.07 0.0765239
9829.26 0.0676824
9831.63 0.0619723
9834.00 0.0635745
9836.37 0.0692410
9838.74 0.0782604
9841.11 0.0909031
9843.48 0.108118
9845.85 0.131592
9848.22 0.164164
9850.59 0.210563
9852.96 0.278908
9855.33 0.383276
9857.70 0.548132
9860.07 0.810335
9863.04 1.29598
9866.00 1.61942
9868.97 1.29478
9871.93 0.808968
9873.93 0.580076
9875.93 0.425187
9877.93 0.320497
9879.94 0.248235
9883.94 0.159639
9887.94 0.110413
9891.94 0.0806107
9895.94 0.0613311
9903.95 0.0388378
9911.95 0.0267660
9919.96 0.0195673
9935.97 0.0117903
9951.97 0.00791086
9967.98 0.00570881
9983.99 0.00434790
10000.0 0.00345834
10032.5 0.00244819
10064.9 0.00213222
10081.1 0.00234099
10089.2 0.00267147
10097.4 0.00335973
10105.5 0.00493952
10113.6 0.00954244
10117.6 0.0159787
10119.7 0.0224032
10121.7 0.0340300
10123.7 0.0587764
10124.7 0.0833096
10125.8 0.126975
10126.3 0.163568
10126.8 0.218747
10127.3 0.307581
10127.8 0.460004
10128.0 0.588527
10128.3 0.770399
10128.5 1.05120
10128.8 1.51729
10129.1 2.42083
10129.2 3.20246
10129.3 4.30430
10129.4 6.25144
10129.6 9.40650
10129.7 16.0187
10129.7 21.1996
10129.8 28.5140
10129.9 45.6247
10130.0 57.0322
10130.1 45.6233
10130.2 28.5131
10130.3 20.2039
10130.3 14.6596
10130.4 10.9614
10130.5 8.43606
10130.6 5.37525
10130.8 3.78662
10130.9 2.74206
10131.0 2.07280
10131.3 1.31941
10131.6 0.900249
10131.9 0.659730
10132.4 0.397521
10132.9 0.263652
10133.5 0.188702
10134.0 0.141073
10134.6 0.109976
10135.7 0.0718231
10136.8 0.0508247
10138.9 0.0294652
10141.1 0.0193343
10143.3 0.0137872
10147.7 0.00819591
10156.4 0.00411942
10165.1 0.00265919
10182.6 0.00157303
10200.1 0.00116420
10217.6 0.000964120
10235.0 0.000871890
10252.5 0.000987403
10261.2 0.00176444
10265.6 0.00496888
10267.8 0.0175600
10268.9 0.0658550
10269.4 0.247632
10269.7 0.859198
10269.8 1.42379
10269.8 2.79231
10269.9 4.66953
10269.9 7.61277
10269.9 14.2541
10270.0 24.1823
10270.0 44.1305
10270.0 88.1174
10270.0 43.9873
10270.1 24.1823
10270.1 18.3305
10270.1 11.3435
10270.1 5.43021
10270.2 2.03555
10270.4 0.638900
10270.7 0.180476
10271.3 0.0477278
10272.6 0.0126894
10275.2 0.00368284
10280.4 0.00138936
10290.8 0.000788264
10311.6 0.000601984
10353.1 0.000508946
10436.2 0.000449790
10519.3 0.000454496
10602.4 0.000521535
10685.5 0.000706865
10727.0 0.000901368
10768.5 0.00125917
10789.3 0.00156007
10810.1 0.00201704
10830.9 0.00275883
10851.6 0.00408093
10862.0 0.00516941
10872.4 0.00679123
10882.8 0.00936620
10888.0 0.0112588
10893.2 0.0138040
10895.8 0.0154221
10898.4 0.0173463
10901.0 0.0196582
10903.6 0.0224568
10906.2 0.0259161
10908.7 0.0302234
10911.3 0.0357226
10913.9 0.0428301
10916.5 0.0523077
10919.1 0.0652582
10921.7 0.0835507
10924.3 0.110311
10926.9 0.151682
10929.5 0.218731
10932.1 0.334639
10933.4 0.422980
10934.7 0.538943
10937.4 0.864602
10940.0 1.08251
10942.7 0.864060
10945.3 0.538425
10947.9 0.334837
10950.5 0.219775
10953.0 0.152453
10955.6 0.111140
10958.2 0.0841566
10960.8 0.0658321
10965.9 0.0432972
10971.0 0.0305551
10976.2 0.0227148
10986.5 0.0139713
10996.8 0.00948195
11007.1 0.00688165
11017.3 0.00524551
11027.6 0.00415300
11048.2 0.00284605
11068.8 0.00218145
11079.1 0.00204317
11089.4 0.00217358
11099.7 0.00380568
11104.8 0.0108626
11107.4 0.0386855
11108.7 0.146235
11109.0 0.252408
11109.3 0.538056
11109.5 0.908223
11109.6 1.84739
11109.7 2.97738
11109.8 5.55064
11109.8 8.26619
11109.9 13.4691
11109.9 25.0181
11109.9 36.3537
11110.0 60.0098
11110.0 100.200
11110.0 118.736
11110.0 100.200
11110.0 58.7330
11110.1 36.3537
11110.1 21.1100
11110.1 13.4692
11110.2 9.24871
11110.2 5.07878
11110.3 3.18801
11110.4 1.58445
11110.5 0.980183
11110.8 0.455933
11111.0 0.267982
11111.9 0.0708538
11113.8 0.0190989
11117.5 0.00570247
11125.0 0.00224970
11140.0 0.00127796
11155.0 0.00102879
11170.0 0.000908624
11185.0 0.000850836
11200.0 0.000878242
11215.0 0.00133929
11222.5 0.00336632
11226.2 0.0114794
11228.1 0.0431408
11229.0 0.165319
11229.5 0.617936
11229.6 1.06498
11229.7 2.08891
11229.8 3.41001
11229.9 6.48810
11229.9 9.80872
11229.9 16.2960
11229.9 30.8888
11230.0 54.1004
11230.0 85.0477
11230.0 108.920
11230.0 85.0476
11230.0 54.1003
11230.1 30.8888
11230.1 16.2961
11230.1 9.80880
11230.2 6.48817
11230.2 3.41007
11230.3 2.24930
11230.4 1.12272
11230.5 0.670154
11230.9 0.179778
11231.8 0.0474464
11233.6 0.0125106
11237.2 0.00359439
11244.3 0.00133001
11258.7 0.000735244
11287.3 0.000548242
11344.5 0.000458736
11401.7 0.000456138
11430.4 0.000601920
11444.7 0.00123143
11451.8 0.00375159
11455.4 0.0137474
11457.2 0.0529533
11458.1 0.201460
11458.3 0.354814
11458.5 0.751455
11458.6 1.25858
11458.7 2.51897
11458.8 4.19077
11458.9 7.23612
11458.9 10.9038
11458.9 18.0000
11458.9 33.6367
11459.0 54.7915
11459.0 87.9976
11459.0 110.275
11459.0 87.9975
11459.0 54.7915
11459.1 33.6368
11459.1 26.8888
11459.1 18.0001
11459.1 9.42885
11459.2 5.12806
11459.2 3.48656
11459.3 1.78416
11459.4 1.07873
11459.6 0.515919
11459.8 0.309278
11460.5 0.0831941
11461.9 0.0216792
11464.7 0.00579919
11470.3 0.00174456
11481.5 0.000717850
11504.0 0.000456036
11549.0 0.000386089
11638.9 0.000369463
11818.7 0.000392890
12178.4 0.000541928
12358.3 0.000683468
12538.1 0.000909201
12717.9 0.00131628
12807.9 0.00177292
12852.8 0.00266076
12864.1 0.00344294
12875.3 0.00557243
12880.9 0.00847926
12886.5 0.0166073
12889.3 0.0277347
12890.8 0.0387677
12892.2 0.0585135
12893.6 0.100093
12894.3 0.140156
12895.0 0.210788
12895.3 0.270273
12895.7 0.356182
12896.0 0.490823
12896.4 0.719123
12896.7 1.15203
12896.9 1.54337
12897.1 2.12542
12897.3 3.17548
12897.4 5.03707
12897.5 6.71402
12897.6 9.28584
12897.7 13.3729
12897.8 19.8278
12897.9 31.7391
12898.0 39.5671
12898.1 31.7382
12898.2 19.7380
12898.4 11.3151
12898.5 7.19141
12898.6 4.74664
12898.7 3.42222
12898.9 2.51746
12899.0 1.96251
12899.2 1.26434
12899.5 0.880196
12899.7 0.647310
12900.2 0.395392
12900.7 0.264481
12901.2 0.189425
12902.2 0.111682
12903.2 0.0736110
12904.2 0.0525562
12906.2 0.0310308
12908.2 0.0207774
12910.2 0.0151370
12914.1 0.00948184
12922.1 0.00540702
12930.0 0.00399556
12945.9 0.00304410
12961.8 0.00277922
13025.4 0.00292444
13152.6 0.00452413
13184.4 0.00518733
13216.2 0.00601702
13232.1 0.00651199
13248.0 0.00707284
13263.9 0.00771187
13279.8 0.00844400
13295.7 0.00928986
13311.6 0.0102747
13327.5 0.0114332
13343.4 0.0128137
13359.3 0.0144969
13375.1 0.0166519
13391.0 0.0201501
13399.0 0.0259003
13403.0 0.0436250
13405.0 0.109523
13405.5 0.175615
13405.9 0.350621
13406.2 0.583762
13406.4 1.19010
13406.6 1.98623
13406.7 3.72908
13406.8 5.60231
13406.8 9.27633
13406.8 12.5592
13406.9 17.7781
13406.9 26.5292
13406.9 46.5892
13407.0 75.7531
13407.0 92.7906
13407.0 75.7528
13407.1 46.5891
13407.1 30.6914
13407.1 23.0718
13407.1 15.7468
13407.2 12.5593
13407.2 7.73726
13407.3 5.60249
13407.4 2.95556
13407.4 1.89998
13407.6 0.947602
13407.8 0.584143
13408.2 0.283340
13408.6 0.174335
13409.3 0.0917491
13410.1 0.0620377
13413.1 0.0332526
13419.0 0.0271824
13431.0 0.0288456
13443.0 0.0331389
13455.0 0.0394421
13466.9 0.0493927
13478.9 0.0691706
13484.9 0.0904618
13487.9 0.108941
13490.9 0.138763
13493.9 0.193217
13495.4 0.239488
13496.9 0.310298
13498.4 0.428227
13499.9 0.640347
13501.4 1.07284
13502.1 1.45774
13502.9 2.02465
13503.9 3.20106
13505.0 3.98392
13506.1 3.20240
13507.1 2.02800
13507.7 1.59439
13508.2 1.27428
13508.7 1.03502
13509.3 0.855179
13510.3 0.612823
13511.4 0.464584
13512.5 0.368868
13513.5 0.304154
13515.6 0.225820
13519.9 0.157614
13524.1 0.132261
13532.6 0.120491
13541.1 0.127342
13558.0 0.166330
13575.0 0.235555
13597.5 0.374102
13620.0 0.466564
13631.3 0.438114
13642.5 0.371360
13665.0 0.231063
13682.5 0.157377
13700.1 0.110631
13717.6 0.0807631
13735.1 0.0610425
13770.2 0.0379488
13805.2 0.0256805
13840.3 0.0184711
13875.4 0.0139016
13945.5 0.00867803
14015.6 0.00593139
14085.7 0.00431933
14155.8 0.00331180
14190.9 0.00300966
14208.4 0.00314383
14217.2 0.00425273
14221.6 0.00890460
14223.8 0.0272462
14224.9 0.0984531
14225.4 0.365289
14225.7 1.25895
14225.8 2.07843
14225.8 4.04303
14225.9 6.68887
14225.9 10.7270
14225.9 19.3742
14226.0 31.2192
14226.0 43.0498
14226.0 67.1388
14226.0 85.9834
14226.0 67.1387
14226.0 42.9359
14226.1 24.3858
14226.1 12.8663
14226.1 5.83027
14226.2 2.96041
14226.3 1.91934
14226.5 0.553718
14226.9 0.150302
14227.8 0.0408094
14229.6 0.0122919
14233.1 0.00500050
14240.1 0.00310525
14254.2 0.00254022
14282.3 0.00224041
14338.5 0.00191878
14394.7 0.00176371
14422.8 0.00203293
14436.9 0.00346802
14443.9 0.00931667
14447.4 0.0322403
14449.2 0.120444
14449.6 0.208203
14450.1 0.445786
14450.3 0.755967
14450.5 1.55089
14450.6 2.51794
14450.7 4.74817
14450.8 7.42689
14450.8 11.7285
14450.9 16.2055
14450.9 20.6031
14450.9 30.6950
14450.9 41.4583
14451.0 69.7340
14451.0 82.9162
14451.0 69.7337
14451.1 41.4581
14451.1 26.7441
14451.1 18.2253
14451.2 11.7286
14451.2 8.82044
14451.3 5.08440
14451.3 3.47448
14451.5 1.82594
14451.6 1.12016
14451.9 0.544239
14452.1 0.320602
14452.6 0.149755
14453.2 0.0867520
14455.2 0.0233860
14459.4 0.00698772
14467.8 0.00279682
14484.5 0.00169951
14517.9 0.00135085
14584.8 0.00114438
14718.5 0.000937623
14852.2 0.000843779
14919.1 0.000854442
14952.5 0.000921066
14969.3 0.00106741
14977.6 0.00146207
14981.8 0.00284222
14983.9 0.00813415
14984.9 0.0282645
14985.4 0.101933
14985.7 0.349722
14985.8 1.06231
14985.9 2.88694
14985.9 5.38476
14986.0 15.9860
14986.0 31.9709
14986.0 15.9860
14986.1 5.38478
14986.1 2.42407
14986.2 0.856331
14986.4 0.257989
14986.7 0.0737774
14987.3 0.0204787
14988.5 0.00610552
14991.0 0.00245967
14996.0 0.00165907
15006.0 0.00208249
15016.0 0.00555714
15020.9 0.0193810
15023.4 0.0726244
15024.1 0.126718
15024.7 0.272190
15025.0 0.463115
15025.3 0.956730
15025.5 1.59305
15025.6 2.99405
15025.7 4.62874
15025.8 7.99791
15025.8 11.1562
15025.9 16.3985
15025.9 25.5969
15025.9 36.9599
15026.0 59.0255
15026.0 73.6901
15026.0 59.0251
15026.1 36.9597
15026.1 25.5968
15026.1 20.3329
15026.2 12.2189
15026.2 7.99797
15026.3 5.98206
15026.4 3.48917
15026.5 2.27209
15026.6 1.17741
15026.8 0.717121
15027.2 0.345902
15027.5 0.203024
15028.3 0.0944758
15029.0 0.0546145
15031.9 0.0146701
15037.6 0.00436196
15049.2 0.00174265
15072.3 0.00110354
15118.5 0.00101754
15164.7 0.00113353
15210.8 0.00140012
15257.0 0.00198629
15280.1 0.00256233
15303.2 0.00358611
15326.3 0.00567491
15337.9 0.00764735
15349.4 0.0110263
15355.2 0.0137069
15358.1 0.0154495
15361.0 0.0175530
15363.9 0.0201427
15366.7 0.0233672
15369.6 0.0274491
15372.5 0.0326953
15375.4 0.0396369
15378.3 0.0490350
15381.2 0.0621548
15384.1 0.0810651
15387.0 0.109697
15389.8 0.154831
15392.7 0.229838
15395.6 0.355640
15398.8 0.567157
15402.0 0.707430
15405.2 0.566855
15408.4 0.355352
15411.6 0.220834
15414.7 0.144646
15417.9 0.100367
15421.0 0.0731498
15424.2 0.0554779
15427.3 0.0434480
15433.6 0.0287092
15439.9 0.0203942
15446.2 0.0152775
15458.8 0.00959373
15471.4 0.00668155
15484.0 0.00500240
15509.2 0.00325428
15534.3 0.00243546
15559.5 0.00204576
15572.1 0.00198923
15584.7 0.00213877
15597.3 0.00346480
15603.6 0.00899340
15606.8 0.0305016
15607.6 0.0521652
15608.3 0.110319
15608.7 0.189172
15609.1 0.389827
15609.3 0.646405
15609.5 1.22008
15609.6 1.88243
15609.7 3.24456
15609.8 4.51964
15609.8 6.63597
15609.9 10.3593
15609.9 15.5374
15610.0 24.7587
15610.0 31.0738
15610.1 24.7585
15610.1 15.5372
15610.1 11.4067
15610.2 8.60377
15610.2 4.85833
15610.3 3.05286
15610.4 2.18605
15610.5 1.17367
15610.6 0.750286
15610.9 0.372975
15611.2 0.222387
15611.7 0.105300
15612.2 0.0620738
15614.4 0.0172829
15618.7 0.00551284
15627.3 0.00246272
15644.4 0.00165697
15678.8 0.00143703
15747.5 0.00150804
15816.2 0.00192081
15850.5 0.00263167
15867.7 0.00458984
15876.3 0.0117335
15878.4 0.0189598
15880.6 0.0389884
15881.7 0.0664969
15882.7 0.141019
15883.3 0.240601
15883.5 0.336202
15883.8 0.494908
15884.1 0.816914
15884.2 1.12393
15884.3 1.59335
15884.5 2.51499
15884.6 3.30021
15884.6 4.29625
15884.7 6.11754
15884.7 8.70101
15884.8 14.0871
15884.9 24.1629
15884.9 39.0009
15885.0 48.5038
15885.1 39.0005
15885.1 24.1626
15885.2 14.0870
15885.3 8.70102
15885.3 5.79619
15885.4 4.10222
15885.5 3.04281
15885.5 2.34120
15885.7 1.54778
15885.8 1.07050
15885.9 0.800023
15886.2 0.486945
15886.5 0.323047
15886.8 0.232655
15887.3 0.137511
15888.4 0.0647192
15889.5 0.0382964
15891.6 0.0187361
15893.8 0.0117491
15902.5 0.00498756
15919.9 0.00352912
15954.6 0.00388894
15989.3 0.00506187
16006.7 0.00595166
16015.3 0.00650139
16024.0 0.00713921
16032.7 0.00788455
16041.4 0.00875958
16050.1 0.00979620
16058.7 0.0110354
16063.1 0.0117473
16067.4 0.0125318
16076.1 0.0143598
16084.8 0.0166218
16093.5 0.0194620
16102.1 0.0230875
16110.8 0.0278021
16119.5 0.0340619
16128.2 0.0425670
16136.9 0.0544101
16145.5 0.0712997
16154.2 0.0958082
16162.9 0.131222
16176.5 0.209471
16190.0 0.261332
16196.8 0.245870
16203.6 0.209071
16217.1 0.130909
16226.2 0.0942616
16235.3 0.0694208
16244.4 0.0526794
16253.5 0.0412824
16262.6 0.0336098
16271.6 0.0293436
16276.2 0.0294079
16280.7 0.0342936
16283.0 0.0429898
16285.3 0.0687668
16286.4 0.104468
16287.0 0.139459
16287.6 0.200275
16288.1 0.325686
16288.4 0.446367
16288.7 0.645239
16289.0 1.04088
16289.1 1.37907
16289.3 1.91356
16289.4 2.82577
16289.5 4.55200
16289.6 6.03539
16289.7 8.29834
16289.8 11.8796
16289.8 18.4594
16289.9 28.9258
16290.0 36.7952
16290.1 28.9253
16290.2 18.3524
16290.3 11.2579
16290.4 7.20497
16290.4 4.91712
16290.5 3.66354
16290.6 2.74089
16290.7 2.12317
16290.9 1.40881
16291.1 0.984162
16291.2 0.738445
16291.6 0.461765
16291.9 0.314963
16292.3 0.230325
16293.0 0.142420
16293.7 0.0988454
16294.3 0.0746882
16295.7 0.0496955
16298.5 0.0306897
16301.3 0.0234300
16306.8 0.0173908
16312.3 0.0145796
16323.4 0.0114973
16334.5 0.00959439
16356.7 0.00713948
16378.8 0.00557361
16423.1 0.00370446
16467.5 0.00266194
16511.8 0.00202003
16556.1 0.00159765
16644.8 0.00109854
16733.4 0.000841459
16822.0 0.000745237
16866.4 0.000791709
16888.5 0.000874347
16910.7 0.00105103
16932.8 0.00146097
16943.9 0.00188250
16955.0 0.00266174
16966.1 0.00433640
16971.6 0.00600276
16977.2 0.00902702
16979.9 0.0115603
16982.7 0.0154045
16985.5 0.0216469
16988.2 0.0327870
16989.6 0.0420069
16991.0 0.0556780
16992.4 0.0775677
16993.8 0.115155
16995.2 0.189240
16995.9 0.255645
16996.6 0.363762
16997.3 0.560301
16997.6 0.722520
16997.9 0.955257
16998.3 1.32741
16998.6 1.92169
16999.0 2.99178
16999.3 4.86317
16999.7 7.78509
17000.0 9.73448
17000.3 7.78453
17000.7 4.86280
17001.0 3.24855
17001.2 2.27584
17001.5 1.63912
17001.8 1.23812
17002.3 0.763158
17002.9 0.516940
17003.4 0.369969
17004.0 0.278741
17005.1 0.173466
17006.1 0.118156
17007.2 0.0856169
17008.3 0.0648916
17009.4 0.0508908
17011.6 0.0336863
17013.8 0.0240114
17016.0 0.0180121
17018.1 0.0140379
17022.5 0.00925802
17026.9 0.00661430
17035.6 0.00393448
17044.3 0.00266937
17053.1 0.00197308
17070.5 0.00127028
17088.0 0.000937617
17105.4 0.000752782
17140.3 0.000562791
17175.2 0.000473311
17210.1 0.000437691
17245.0 0.000521917
17262.5 0.000999311
17271.2 0.00295105
17275.6 0.0106553
17277.8 0.0405132
17278.9 0.152566
17279.4 0.556618
17279.7 1.80882
17279.7 2.87200
17279.8 5.20627
17279.9 11.8312
17279.9 18.7632
17279.9 26.7134
17279.9 38.0330
17280.0 56.7940
17280.0 76.0662
17280.0 56.7938
17280.1 38.0329
17280.1 22.2869
17280.1 15.9456
17280.1 9.06653
17280.2 5.20631
17280.2 3.63193
17280.3 1.92075
17280.4 1.18183
17280.8 0.348016
17281.5 0.0948570
17282.9 0.0248127
17285.7 0.00657788
17291.3 0.00190088
17302.6 0.000710346
17325.0 0.000400194
17370.0 0.000304687
17460.0 0.000256244
17640.0 0.000218693
17819.9 0.000212021
17909.9 0.000248294
17954.9 0.000403557
17977.4 0.00102048
17988.6 0.00345243
17994.2 0.0128789
17995.6 0.0223981
17997.0 0.0483060
17997.8 0.0833167
17998.5 0.174561
17998.8 0.289454
17999.2 0.568701
17999.3 0.899906
17999.5 1.56090
17999.6 2.23781
17999.7 3.43172
17999.8 5.73854
17999.8 7.43477
17999.9 10.1891
17999.9 16.4834
18000.0 20.3786
18000.1 16.4832
18000.1 10.1890
18000.2 6.51736
18000.3 4.51283
18000.3 3.25967
18000.4 2.44497
18000.5 1.50480
18000.6 1.01195
18000.9 0.531614
18001.1 0.331575
18001.6 0.161921
18002.1 0.0955678
18003.1 0.0446452
18004.1 0.0259281
18006.0 0.0118906
18008.0 0.00686527
18015.8 0.00189725
18031.4 0.000627437
18062.6 0.000307733
18125.1 0.000231530
18250.1 0.000227444
18500.0 0.000300632
18625.0 0.000386367
18749.9 0.000549807
18812.4 0.000692071
18874.9 0.000920426
18937.4 0.00138063
18953.0 0.00162666
18968.6 0.00212964
18984.3 0.00425075
18992.1 0.0120343
18994.0 0.0199249
18996.0 0.0417819
18997.0 0.0715929
18997.9 0.151631
18998.4 0.257605
18998.9 0.532917
18999.2 0.884112
18999.4 1.68327
18999.5 2.55416
18999.6 4.29095
18999.7 5.86947
18999.8 8.42125
18999.8 12.7914
18999.9 22.1258
18999.9 35.4292
19000.0 44.0688
19000.1 35.4288
19000.1 21.9443
19000.2 14.9004
19000.2 11.0531
19000.3 7.89992
19000.3 6.21117
19000.4 3.90028
19000.5 2.65520
19000.6 1.91699
19000.7 1.44624
19000.8 0.926297
19001.2 0.464127
19001.5 0.277994
19002.2 0.132280
19002.9 0.0775085
19004.3 0.0363925
19005.7 0.0216374
19011.4 0.00702395
19022.6 0.00343929
19045.1 0.00293912
19090.0 0.00419361
19112.5 0.00546010
19123.8 0.00634583
19135.0 0.00748026
19140.6 0.00817102
19146.2 0.00896778
19151.9 0.00989690
19157.5 0.0109995
19163.1 0.0123556
19168.7 0.0142036
19174.3 0.0181973
19177.2 0.0282636
19178.6 0.0643501
19179.3 0.197383
19179.6 0.662332
19179.8 2.19019
19179.9 6.24415
19179.9 12.5334
19179.9 19.3769
19180.0 32.6081
19180.0 51.6267
19180.0 65.1993
19180.0 51.6266
19180.0 32.6081
19180.1 19.3770
19180.1 10.3219
19180.2 4.14448
19180.3 1.45155
19180.5 0.444800
19180.9 0.134418
19181.8 0.0481074
19183.6 0.0263540
19187.1 0.0222450
19194.2 0.0248461
19201.3 0.0299368
19208.4 0.0370499
19215.5 0.0469413
19222.5 0.0608658
19229.6 0.0807446
19236.7 0.108951
19248.4 0.174226
19260.0 0.217627
19265.8 0.204706
19271.7 0.173942
19283.3 0.108664
19291.0 0.0784186
19298.7 0.0577812
19314.1 0.0339854
19329.6 0.0219602
19345.0 0.0152431
19360.4 0.0111588
19375.8 0.00851081
19406.6 0.00541377
19437.5 0.00375068
19468.3 0.00276419
19499.1 0.00216780
19514.5 0.00210353
19522.3 0.00268783
19526.1 0.00534783
19528.0 0.0159075
19529.0 0.0556821
19529.5 0.196926
19529.7 0.644861
19529.8 1.80584
19529.9 4.00525
19529.9 6.82921
19530.0 16.4126
19530.0 32.8236
19530.0 16.4126
19530.1 5.64255
19530.1 2.97102
19530.2 1.20683
19530.4 0.399803
19530.7 0.117146
19531.3 0.0328208
19532.6 0.00968004
19535.2 0.00365543
19540.4 0.00207442
19550.7 0.00158594
19571.3 0.00131344
19612.5 0.00102605
19695.0 0.000703180
19777.5 0.000540686
19818.7 0.000546276
19839.3 0.000783565
19849.6 0.00181362
19854.8 0.00589857
19857.4 0.0217571
19858.6 0.0812887
19859.3 0.286975
19859.6 0.909278
19859.8 2.39503
19859.8 4.89587
19859.9 7.71617
19859.9 14.8787
19860.0 22.5880
19860.0 27.5697
19860.0 29.7573
19860.0 27.5696
19860.0 22.5879
19860.1 14.8787
19860.1 8.75148
19860.1 6.08791
19860.2 3.05289
19860.4 1.17652
19860.6 0.385586
19861.2 0.109589
19862.3 0.0297494
19864.5 0.00798008
19868.8 0.00233055
19877.6 0.000880385
19895.1 0.000500430
19930.0 0.000381950
20000.0 0.000318679
20000.0 0.000318674
20000.0 0.000318668
20000.1 0.000318645
20000.1 0.000318628
20000.1 0.000318594
20000.3 0.000318525
20000.5 0.000318389
20001.0 0.000318110
20002.0 0.000317558
20003.9 0.000316475
20007.8 0.000314369
20015.6 0.000310384
20031.3 0.000303312
20062.5 0.000293246
20093.7 0.000298606
20109.4 0.000356938
20117.2 0.000604435
20121.1 0.00159582
20123.0 0.00549077
20124.0 0.0207263
20124.5 0.0787533
20124.7 0.278261
20124.9 0.881068
20124.9 2.31544
20124.9 4.71455
20125.0 13.8104
20125.0 27.5698
20125.0 13.7598
20125.1 4.71456
20125.1 2.31545
20125.2 0.881074
20125.3 0.278264
20125.5 0.0787549
20126.0 0.0207267
20127.0 0.00549035
20128.9 0.00159429
20132.8 0.000601031
20140.7 0.000349965
20156.3 0.000284561
20187.5 0.000264935
20250.0 0.000260763
20312.5 0.000287532
20343.7 0.000394590
20359.3 0.000810029
20367.1 0.00245067
20371.1 0.00893283
20373.0 0.0340737
20374.0 0.130067
20374.5 0.478443
20374.7 1.57026
20374.8 4.36650
20374.9 9.53474
20374.9 15.9337
20375.0 32.3624
20375.0 54.2807
20375.0 64.6542
20375.0 54.2806
20375.0 32.2917
20375.1 19.3514
20375.1 13.2763
20375.1 7.12517
20375.2 2.68032
20375.4 0.835120
20375.8 0.239950
20376.5 0.0645640
20377.9 0.0168040
20380.7 0.00447344
20386.3 0.00132734
20397.5 0.000535601
20420.0 0.000344527
20465.0 0.000326784
20510.0 0.000442963
20532.4 0.000882945
20543.7 0.00259850
20549.3 0.00932989
20552.1 0.0353681
20553.5 0.133742
20553.9 0.228815
20554.2 0.477796
20554.4 0.802646
20554.6 1.54201
20554.7 2.42709
20554.8 4.33300
20554.8 6.49396
20554.8 9.53865
20554.9 15.0137
20554.9 19.3849
20554.9 28.8528
20555.0 43.6441
20555.0 53.1453
20555.0 57.3036
20555.0 53.1452
20555.0 43.6439
20555.1 28.4520
20555.1 19.3849
20555.1 15.0137
20555.2 9.53867
20555.2 4.67157
20555.3 2.56974
20555.4 1.69157
20555.6 0.858111
20555.7 0.530338
20556.1 0.255056
20556.4 0.149396
20557.7 0.0396021
20560.4 0.0104426
20565.7 0.00288950
20576.3 0.000977846
20597.5 0.000510304
20640.0 0.000430991
20682.5 0.000484557
20703.7 0.000611720
20714.3 0.00102245
20719.7 0.00259085
20722.3 0.00869101
20723.6 0.0322572
20724.3 0.118378
20724.6 0.408177
20724.8 1.29721
20724.9 3.17405
20724.9 5.96893
20725.0 15.7590
20725.0 31.5177
20725.0 15.7590
20725.1 7.19253
20725.1 4.26273
20725.2 1.73963
20725.3 0.572357
20725.6 0.170919
20726.1 0.0463446
20727.2 0.0125117
20729.4 0.00359444
20733.8 0.00131191
20742.5 0.000755835
20760.0 0.000679141
20777.5 0.000866483
20786.2 0.00156588
20790.6 0.00427142
20792.8 0.0147637
20793.9 0.0545269
20794.4 0.200799
20794.7 0.670838
20794.8 2.02631
20794.9 4.90006
20794.9 8.14394
20795.0 15.8688
20795.0 31.7371
20795.0 15.8688
20795.1 6.80108
20795.1 3.66939
20795.2 1.51454
20795.4 0.478862
20795.7 0.139147
20796.4 0.0374537
20797.7 0.0101603
20800.4 0.00309901
20805.8 0.00131699
20816.5 0.000900082
20837.9 0.000873515
20880.7 0.00109266
20923.6 0.00149292
20966.4 0.00221371
20987.9 0.00280654
21009.3 0.00368778
21030.7 0.00507892
21052.1 0.00746132
21073.5 0.0120507
21078.9 0.0138670
21084.3 0.0161206
21089.6 0.0189736
21095.0 0.0226395
21097.6 0.0248830
21100.3 0.0274715
21103.0 0.0304776
21105.7 0.0339794
21108.4 0.0381211
21111.0 0.0430436
21113.7 0.0489472
21116.4 0.0560679
21119.1 0.0648121
21121.7 0.0756335
21124.4 0.0891817
21127.1 0.106269
21129.8 0.128215
21132.5 0.156533
21135.1 0.193151
21137.8 0.239833
21143.9 0.382719
21150.0 0.477466
21153.1 0.449494
21156.1 0.382433
21162.2 0.239557
21166.2 0.173175
21170.3 0.127751
21178.3 0.0752789
21186.4 0.0486568
21194.4 0.0337748
21202.5 0.0247125
21210.5 0.0188368
21226.6 0.0119573
21242.8 0.00825698
21258.9 0.00604766
21291.1 0.00366100
21323.3 0.00247308
21355.5 0.00180838
21387.7 0.00145255
21403.8 0.00154850
21411.9 0.00246006
21415.9 0.00627951
21417.9 0.0211244
21418.9 0.0772864
21419.4 0.272310
21419.7 0.868701
21419.8 2.43837
21419.9 4.98769
21419.9 7.86748
21419.9 15.2761
21420.0 30.5512
21420.1 15.2760
21420.1 6.70064
21420.2 3.39176
21420.3 1.31507
21420.4 0.438013
21420.8 0.128186
21421.6 0.0354237
21423.1 0.0100035
21426.2 0.00332498
21432.2 0.00159129
21444.4 0.00109474
21468.8 0.000877646
21517.5 0.000712702
21566.2 0.000676359
21590.6 0.000789867
21602.8 0.00121899
21608.9 0.00284444
21611.9 0.00920999
21613.4 0.0338342
21614.2 0.126442
21614.6 0.454209
21614.8 1.48515
21614.9 4.40135
21614.9 10.3063
21614.9 16.0487
21615.0 28.3325
21615.0 56.5893
21615.0 28.2575
21615.1 12.7503
21615.1 5.96314
21615.2 2.38482
21615.3 0.731680
21615.6 0.209743
21616.2 0.0566789
21617.4 0.0150921
21619.7 0.00438724
21624.4 0.00170191
21633.7 0.00111119
21652.4 0.00140397
21671.1 0.00387375
21675.8 0.00642775
21680.5 0.0136038
21682.8 0.0234611
21685.1 0.0505424
21686.3 0.0869540
21687.5 0.184293
21688.1 0.310948
21688.3 0.427146
21688.6 0.622586
21688.9 0.988581
21689.1 1.31735
21689.2 1.79397
21689.4 2.64732
21689.5 4.09795
21689.6 5.48381
21689.7 7.28919
21689.7 9.97662
21689.8 14.4785
21689.9 23.3025
21690.0 28.9572
21690.1 23.3021
21690.2 14.4783
21690.3 10.4574
21690.3 7.94951
21690.5 4.72034
21690.6 3.06548
21690.7 2.18867
21690.8 1.59828
21691.0 1.21549
21691.2 0.780617
21691.5 0.535228
21691.7 0.393807
21692.2 0.238511
21692.7 0.158606
21693.2 0.113760
21694.3 0.0664486
21696.3 0.0308586
21698.3 0.0178913
21702.3 0.00837567
21706.4 0.00499200
21722.6 0.00169300
21738.7 0.00110204
21754.9 0.000928929
21787.3 0.000922153
21819.6 0.00115751
21851.9 0.00175770
21868.1 0.00236128
21884.3 0.00343353
21900.5 0.00559576
21908.6 0.00760214
21916.6 0.0109649
21920.7 0.0135764
21924.7 0.0172416
21928.8 0.0226147
21930.8 0.0262855
21932.8 0.0309121
21934.8 0.0368785
21936.9 0.0446484
21938.9 0.0550391
21940.9 0.0692828
21942.9 0.0893382
21944.9 0.118341
21947.0 0.161149
21949.0 0.224191
21950.5 0.287100
21952.0 0.358479
21955.0 0.447902
21956.5 0.421378
21958.0 0.358350
21961.0 0.224064
21964.2 0.134022
21967.4 0.0854755
21970.6 0.0581458
21973.8 0.0418100
21977.0 0.0313552
21980.2 0.0243519
21986.6 0.0158659
21993.0 0.0111375
21999.4 0.00825078
22012.1 0.00506506
22024.9 0.00343971
22037.7 0.00250216
22050.5 0.00191201
22063.2 0.00151719
22088.8 0.00103766
22114.3 0.000769128
22165.4 0.000498501
22216.5 0.000384751
22267.6 0.000372759
22293.2 0.000437519
22318.7 0.000676912
22344.3 0.00205729
22357.0 0.00753508
22360.2 0.0131312
22363.4 0.0286897
22365.0 0.0498701
22366.6 0.107010
22367.4 0.182402
22367.8 0.254070
22368.2 0.377847
22368.6 0.619318
22368.8 0.836561
22369.0 1.18974
22369.2 1.81764
22369.3 2.33007
22369.4 3.08349
22369.5 4.24493
22369.6 6.13597
22369.7 9.38929
22369.8 14.7487
22369.9 23.8279
22370.0 29.4980
22370.1 23.8276
22370.2 14.7485
22370.3 10.2936
22370.4 7.53449
22370.4 5.67526
22370.5 4.39390
22370.6 2.82431
22370.8 1.95251
22370.9 1.39544
22371.1 1.06363
22371.3 0.674739
22371.6 0.459470
22371.9 0.336101
22372.5 0.201971
22373.6 0.0955163
22374.7 0.0554787
22377.0 0.0255229
22379.3 0.0146533
22383.8 0.00669672
22388.3 0.00386896
22406.4 0.00109710
22442.6 0.000391706
22478.8 0.000303766
22496.9 0.000488669
22505.9 0.00134369
22510.4 0.00476237
22512.7 0.0181087
22513.8 0.0688343
22514.4 0.256251
22514.7 0.865754
22514.8 2.53364
22514.9 5.95236
22514.9 11.8449
22515.0 28.4706
22515.0 45.9962
22515.0 56.9411
22515.0 45.9961
22515.0 28.4705
22515.1 11.8449
22515.1 5.95238
22515.2 2.29660
22515.4 0.770967
22515.7 0.219069
22516.3 0.0585363
22517.5 0.0152417
22520.0 0.00401404
22520.0 0.0341615
23000.0 0.0338327
24000.0 0.0331900
25000.0 0.0325986
26000.0 0.0320523
27000.0 0.0315461
28000.0 0.0310755
29000.0 0.0306363
30000.0 0.0302253
35000.0 0.0284983
40000.0 0.0271506
50000.0 0.0250766
60000.0 0.0234527
70000.0 0.0220870
80000.0 0.0209006
90000.0 0.0202634
100000 0.0197174
125000 0.0178768
150000 0.0164756
170000 0.0155901
200000 0.0145560
200000 0.0146124
250000 0.0139966
300000 0.0137332
400000 0.0143736
500000 0.0153804
600000 0.0168669
693000 0.0185663
693000 0.0185663
700000 0.0186942
800000 0.0207963
816765 0.0211931
900000 0.0231632
1.00000E+06 0.0257047
1.10000E+06 0.0285636
1.20000E+06 0.0317514
1.30000E+06 0.0353356
1.39082E+06 0.0389922
1.39452E+06 0.0391412
1.40000E+06 0.0393618
1.40868E+06 0.0397396
1.45503E+06 0.0417572
1.46363E+06 0.0421315
1.47643E+06 0.0426887
1.48120E+06 0.0428963
1.50000E+06 0.0437146
1.52000E+06 0.0440753
1.53645E+06 0.0443720
1.54541E+06 0.0445336
1.56896E+06 0.0449583
1.58703E+06 0.0452842
1.58703E+06 0.0452842
1.59280E+06 0.0453883
1.60000E+06 0.0455181
1.70000E+06 0.0416528
1.80000E+06 0.0407659
1.90000E+06 0.0409450
2.00000E+06 0.0414985
2.09949E+06 0.0372848
2.09949E+06 0.0372847
2.11626E+06 0.0365746
2.11626E+06 0.0365745
2.22551E+06 0.0319474
2.22551E+06 0.0319473
2.23296E+06 0.0316318
2.23296E+06 0.0316317
2.35663E+06 0.0263939
2.35663E+06 0.0263937
2.40155E+06 0.0244913
2.45503E+06 0.0222263
2.45503E+06 0.0222263
2.50000E+06 0.0203216
2.53217E+06 0.0199954
2.53217E+06 0.0199953
2.56591E+06 0.0196532
2.60166E+06 0.0192907
2.60166E+06 0.0192906
2.75736E+06 0.0177117
2.75736E+06 0.0177116
2.86613E+06 0.0166086
2.86613E+06 0.0166086
2.90732E+06 0.0161909
3.00000E+06 0.0152510
3.50000E+06 0.0122808
4.00000E+06 0.00956291
5.00000E+06 0.00545201
6.00000E+06 0.00290614
7.00000E+06 0.00154008
7.27434E+06 0.00136782
8.00000E+06 0.000912187
9.00000E+06 0.000655450
9.89786E+06 0.000615202
9.89786E+06 0.000615202
1.00000E+07 0.000610623
1.06260E+07 0.000650061
1.10000E+07 0.000673624
1.20000E+07 0.000754079
1.30000E+07 0.000789914
1.40000E+07 0.000766987
1.45000E+07 0.000740470
1.50000E+07 0.000688398
1.60000E+07 0.000539796
1.67381E+07 0.000435956
1.70000E+07 0.000399111
1.77503E+07 0.000315155
1.77503E+07 0.000315154
1.80000E+07 0.000287211
1.90000E+07 0.000202817
2.00000E+07 0.000146667