Pb-208(n,g) ENDF/B-VII.1
Energy(eV) XS(b)
1.00000E-05 0.0116698
1.25000E-05 0.0104378
1.50000E-05 0.00952838
2.00000E-05 0.00825182
2.75000E-05 0.00703717
3.50000E-05 0.00623779
4.25000E-05 0.00566070
5.00000E-05 0.00521891
6.25000E-05 0.00466793
7.50000E-05 0.00426122
0.000100000 0.00369033
0.000125000 0.00330073
0.000150000 0.00301314
0.000200000 0.00260946
0.000275000 0.00222535
0.000350000 0.00197257
0.000425000 0.00179008
0.000500000 0.00165037
0.000625000 0.00147614
0.000750000 0.00134753
0.00100000 0.00116700
0.00125000 0.00104380
0.00150000 0.000952864
0.00200000 0.000825217
0.00275000 0.000703766
0.00350000 0.000623841
0.00500000 0.000521979
0.00750000 0.000426255
0.0100000 0.000369210
0.0150000 0.000301580
0.0200000 0.000261300
0.0253000 0.000231996
0.0376500 0.000190191
0.0500000 0.000165045
0.0750000 0.000134757
0.100000 0.000116702
0.150000 9.52890E-05
0.200000 8.25203E-05
0.275000 7.03755E-05
0.350000 6.23818E-05
0.500000 5.21951E-05
0.750000 4.26200E-05
1.00000 3.69122E-05
1.50000 3.01420E-05
2.00000 2.61067E-05
2.75000 2.22679E-05
3.50000 1.97420E-05
5.00000 1.65233E-05
7.50000 1.34994E-05
10.0000 1.16981E-05
15.0000 9.56333E-06
20.0000 8.29261E-06
27.5000 7.08561E-06
35.0000 6.29304E-06
50.0000 5.28618E-06
75.0000 4.34571E-06
100.000 3.78994E-06
150.000 3.13936E-06
200.000 2.75933E-06
275.000 2.40736E-06
350.000 2.18407E-06
500.000 1.91594E-06
750.000 1.69450E-06
1000.00 1.58899E-06
1500.00 1.51407E-06
2000.00 1.51708E-06
2750.00 1.58231E-06
3500.00 1.68222E-06
5000.00 1.92848E-06
7500.00 2.39724E-06
10000.0 2.89965E-06
15000.0 3.96773E-06
20000.0 5.11993E-06
26815.0 6.87551E-06
33629.9 8.97216E-06
40444.9 1.16849E-05
43852.3 1.34482E-05
45556.1 1.45261E-05
46407.9 1.53006E-05
46833.9 1.64593E-05
47046.8 2.00830E-05
47153.3 3.40524E-05
47206.6 8.94803E-05
47233.2 0.000309240
47246.5 0.00117314
47253.2 0.00451628
47256.5 0.0170210
47258.1 0.0604211
47259.0 0.192041
47259.4 0.513008
47259.8 2.64262
47260.0 5.28518
47260.2 2.64258
47260.5 0.637555
47260.9 0.265307
47261.5 0.0876817
47262.9 0.0253833
47265.6 0.00684654
47270.9 0.00179171
47281.6 0.000468583
47303.0 0.000130072
47345.8 4.44532E-05
47431.4 2.29676E-05
47602.7 1.76828E-05
47945.2 1.65811E-05
48630.1 1.67756E-05
50000.0 1.78599E-05
55289.9 2.41365E-05
57934.8 2.90596E-05
60579.8 3.62127E-05
63224.7 4.73703E-05
65869.6 6.66426E-05
67192.1 8.24702E-05
68514.6 0.000107404
69175.8 0.000127432
69837.0 0.000162275
70167.7 0.000196554
70498.3 0.000273131
70663.6 0.000363709
70746.2 0.000445906
70828.9 0.000583167
70911.6 0.000840685
70952.9 0.00106438
70994.2 0.00141591
71035.5 0.00201277
71076.9 0.00313574
71097.5 0.00409785
71118.2 0.00556292
71138.8 0.00788502
71159.5 0.0116459
71210.0 0.0255831
71222.6 0.0252865
71235.3 0.0222787
71260.5 0.0142751
71285.9 0.00874147
71311.4 0.00565721
71336.8 0.00390946
71362.2 0.00285896
71387.7 0.00218893
71413.1 0.00173968
71464.0 0.00119765
71514.8 0.000898109
71565.7 0.000716736
71667.4 0.000519597
71769.1 0.000422484
71870.9 0.000369424
72074.3 0.000320925
72481.2 0.000305884
72888.1 0.000328316
73701.9 0.000429019
74515.8 0.000618219
75329.6 0.000987274
75736.5 0.00131407
76143.4 0.00183491
76550.3 0.00273361
76957.2 0.00446143
77160.7 0.00597014
77364.1 0.00830739
77567.6 0.0120790
77771.0 0.0182623
78250.0 0.0377091
78489.5 0.0310045
78729.0 0.0195371
78972.6 0.0119161
79216.1 0.00768138
79459.6 0.00526594
79703.2 0.00380275
79946.7 0.00286305
80190.3 0.00222864
80677.3 0.00145705
81164.4 0.00102619
81651.5 0.000762437
82625.7 0.000470683
83599.8 0.000322202
84574.0 0.000237999
85548.1 0.000194072
86035.2 0.000211683
86157.0 0.000242560
86278.8 0.000327509
86339.7 0.000432206
86370.1 0.000524658
86400.5 0.000671347
86431.0 0.000922467
86461.4 0.00139826
86476.6 0.00180724
86491.9 0.00243097
86507.1 0.00341714
86522.3 0.00499585
86560.0 0.0102072
86578.9 0.00843684
86597.7 0.00536452
86610.8 0.00384574
86623.9 0.00282626
86637.0 0.00214534
86650.1 0.00168057
86676.2 0.00111805
86702.4 0.000809741
86728.6 0.000624656
86754.8 0.000505537
86807.1 0.000367051
86859.5 0.000292630
86911.8 0.000247922
87016.5 0.000198608
87225.9 0.000157082
87435.4 0.000138610
88273.0 0.000108253
89948.3 8.16078E-05
93298.9 5.57842E-05
96649.4 4.34135E-05
100000 3.68454E-05
104265 3.30028E-05
108531 3.36698E-05
110663 3.75676E-05
112796 5.02544E-05
113862 6.80122E-05
114395 8.54147E-05
114928 0.000116316
115462 0.000179126
115728 0.000238120
115995 0.000338558
116261 0.000530330
116395 0.000698924
116528 0.000966452
116661 0.00142574
116795 0.00230300
116861 0.00306512
116928 0.00423801
116994 0.00611983
117061 0.00919350
117220 0.0193890
117300 0.0161623
117379 0.0101970
117429 0.00746068
117479 0.00555454
117579 0.00330973
117679 0.00215685
117779 0.00150702
117879 0.00111022
117978 0.000851972
118178 0.000549129
118378 0.000385882
118578 0.000288250
118977 0.000182512
119377 0.000129562
119777 9.93531E-05
120176 8.05137E-05
120576 6.79839E-05
121375 5.28750E-05
122174 4.44750E-05
123772 3.60244E-05
125370 3.22975E-05
126969 3.10612E-05
127768 3.17093E-05
128567 3.51123E-05
129366 5.61384E-05
129766 0.000140937
129866 0.000227855
129965 0.000471809
130015 0.000805889
130065 0.00172370
130090 0.00295080
130103 0.00413359
130115 0.00618603
130128 0.0103083
130134 0.0141496
130140 0.0204644
130147 0.0323667
130150 0.0423582
130153 0.0576467
130156 0.0825520
130159 0.126445
130162 0.211300
130164 0.286026
130165 0.386676
130168 0.622972
130170 0.773014
130173 0.615212
130175 0.388495
130178 0.220096
130181 0.136995
130183 0.0917883
130186 0.0652390
130189 0.0480689
130192 0.0371170
130198 0.0239659
130203 0.0166114
130209 0.0122393
130220 0.00742735
130231 0.00496646
130243 0.00355518
130265 0.00208744
130310 0.000976777
130355 0.000571811
130445 0.000273850
130535 0.000167234
130716 8.99130E-05
130896 6.25161E-05
131617 3.56649E-05
133059 2.85857E-05
134501 2.71013E-05
135942 2.65192E-05
141710 2.61099E-05
147477 2.70293E-05
148919 2.77876E-05
150361 2.96827E-05
151082 3.21699E-05
151803 3.90583E-05
152163 4.85612E-05
152524 7.54199E-05
152704 0.000112690
152884 0.000217757
153064 0.000765763
153155 0.00279871
153177 0.00475993
153200 0.00982112
153211 0.0161055
153222 0.0308056
153228 0.0473366
153233 0.0803032
153236 0.110695
153239 0.160593
153242 0.247999
153245 0.408144
153250 0.885732
153251 0.863157
153253 0.755784
153255 0.479152
153258 0.297526
153261 0.196689
153263 0.137071
153266 0.100052
153271 0.0593242
153276 0.0389603
153281 0.0274545
153286 0.0203569
153296 0.0124481
153306 0.00838521
153316 0.00602966
153336 0.00354893
153376 0.00165999
153416 0.000965297
153496 0.000453073
153576 0.000269330
153736 0.000136014
153896 8.88007E-05
154216 5.48607E-05
154536 4.29643E-05
155176 3.45569E-05
155816 3.17501E-05
157096 3.01159E-05
158376 3.01139E-05
159656 3.09968E-05
160936 3.33808E-05
161576 3.62186E-05
162216 4.33574E-05
162536 5.26612E-05
162856 7.81929E-05
163016 0.000113152
163176 0.000211281
163336 0.000723276
163416 0.00263523
163456 0.00931700
163466 0.0153532
163476 0.0298608
163481 0.0461957
163486 0.0802039
163488 0.112625
163491 0.167859
163493 0.270006
163495 0.357687
163496 0.478867
163500 1.04743
163501 1.02582
163502 0.904619
163504 0.573281
163506 0.346507
163509 0.219224
163511 0.148049
163513 0.105657
163517 0.0608457
163522 0.0392624
163531 0.0201146
163539 0.0122333
163557 0.00585473
163574 0.00343617
163610 0.00160299
163645 0.000933478
163715 0.000442160
163785 0.000266688
163925 0.000140013
164066 9.56529E-05
164346 6.47446E-05
164627 5.51776E-05
165750 5.88642E-05
166311 7.68980E-05
166873 0.000127748
167434 0.000376465
167715 0.00127799
167855 0.00463634
167890 0.00796531
167926 0.0170100
167943 0.0289542
167961 0.0597849
167969 0.0981890
167978 0.187923
167983 0.287974
167987 0.491325
167989 0.679674
167991 0.989665
167994 1.53181
167996 2.49793
167998 3.96694
168000 5.00764
168002 3.98977
168004 2.50998
168006 1.60962
168008 1.07272
168010 0.752768
168012 0.552523
168016 0.330237
168020 0.218045
168028 0.114711
168036 0.0704572
168052 0.0343536
168068 0.0203472
168100 0.00967817
168132 0.00579185
168196 0.00303531
168260 0.00227901
168324 0.00239016
168388 0.00369069
168420 0.00555407
168436 0.00728575
168452 0.0101275
168468 0.0152937
168476 0.0195753
168484 0.0259650
168492 0.0360231
168500 0.0529230
168508 0.0835090
168516 0.141082
168530 0.308363
168534 0.303318
168537 0.265785
168544 0.169915
168551 0.108399
168557 0.0724164
168564 0.0505856
168570 0.0371661
168583 0.0221947
168596 0.0146832
168609 0.0104300
168622 0.00780153
168647 0.00487301
168673 0.00335481
168699 0.00247078
168751 0.00153465
168802 0.00107304
168854 0.000814188
168957 0.000559805
169060 0.000479595
169163 0.000564875
169215 0.000758127
169240 0.000958913
169266 0.00131789
169292 0.00204386
169305 0.00271334
169318 0.00381509
169330 0.00584611
169337 0.00757057
169343 0.0101424
169350 0.0143391
169356 0.0214652
169363 0.0347273
169369 0.0607096
169375 0.0970403
169380 0.121126
169386 0.0967789
169391 0.0605055
169397 0.0351912
169403 0.0221571
169410 0.0148932
169416 0.0106786
169422 0.00797534
169428 0.00620297
169440 0.00405301
169453 0.00286609
169465 0.00214438
169489 0.00135168
169514 0.000945447
169539 0.000710211
169588 0.000461239
169686 0.000265495
169784 0.000188158
169981 0.000123447
170177 9.50429E-05
170571 6.86213E-05
170964 5.60915E-05
171750 4.42731E-05
172536 3.88902E-05
174109 3.42222E-05
175682 3.23576E-05
178827 3.10682E-05
181972 3.08210E-05
188263 3.11813E-05
194553 3.19042E-05
219716 3.56588E-05
244878 4.01001E-05
257459 4.29171E-05
260604 4.39175E-05
263750 4.54815E-05
266895 5.03266E-05
267681 5.44963E-05
268467 6.55331E-05
268861 8.01253E-05
269057 9.42209E-05
269254 0.000119089
269450 0.000169469
269549 0.000216731
269647 0.000297214
269745 0.000450868
269794 0.000586160
269844 0.000800438
269893 0.00116904
269942 0.00187080
269966 0.00247958
269991 0.00340990
270016 0.00489682
270040 0.00727709
270070 0.0116311
270100 0.0146235
270130 0.0117931
270160 0.00740510
270190 0.00457390
270220 0.00298721
270250 0.00207327
270280 0.00151668
270310 0.00115559
270340 0.000910710
270400 0.000611842
270460 0.000443833
270520 0.000340819
270640 0.000226436
270759 0.000167846
270879 0.000133986
271119 9.85024E-05
271359 8.13395E-05
271599 7.18454E-05
272078 6.24700E-05
272558 5.84746E-05
273037 5.67979E-05
273996 5.70236E-05
274955 6.15114E-05
275435 6.65476E-05
275914 7.56904E-05
276394 9.42629E-05
276873 0.000140629
277113 0.000195108
277233 0.000242071
277353 0.000315049
277472 0.000437002
277592 0.000660794
277652 0.000847830
277712 0.00112566
277772 0.00155363
277832 0.00222683
277990 0.00508650
278030 0.00512495
278069 0.00457465
278148 0.00294524
278238 0.00168625
278328 0.00104048
278418 0.000698733
278508 0.000503137
278597 0.000382407
278687 0.000303374
278867 0.000210274
279047 0.000159859
279227 0.000129666
279586 9.69219E-05
279946 8.05435E-05
280305 7.12248E-05
281024 6.16174E-05
281743 5.70723E-05
282462 5.46167E-05
283900 5.23010E-05
286776 5.11164E-05
289652 5.12713E-05
301155 5.49356E-05
312659 6.18511E-05
318411 6.79277E-05
321287 7.38734E-05
322006 7.71691E-05
322725 8.43869E-05
323084 9.30314E-05
323444 0.000114758
323623 0.000141596
323803 0.000206198
323893 0.000279665
323938 0.000341370
323983 0.000435037
324028 0.000586817
324073 0.000852262
324118 0.00136760
324140 0.00181520
324163 0.00248433
324196 0.00412366
324230 0.00607761
324247 0.00636242
324264 0.00584221
324298 0.00381548
324324 0.00255301
324351 0.00175763
324378 0.00126613
324404 0.000953799
324458 0.000601545
324511 0.000423003
324564 0.000321173
324618 0.000258242
324724 0.000187944
324831 0.000151804
324938 0.000130935
325151 0.000109135
325577 9.30883E-05
326004 8.77875E-05
327710 8.56943E-05
331123 9.51241E-05
334536 0.000111805
337949 0.000140008
341362 0.000192698
343068 0.000238032
344774 0.000308412
346481 0.000425482
348187 0.000638302
349040 0.000813585
349894 0.00106985
350747 0.00145346
351600 0.00202966
352794 0.00326051
353391 0.00428223
353540 0.00488216
353689 0.00635091
353838 0.0132842
353876 0.0197444
353913 0.0359525
353932 0.0552610
353950 0.0981280
353960 0.142817
353969 0.225063
353974 0.295139
353978 0.397453
353983 0.558000
353988 0.799938
353994 1.28412
354000 1.60365
354006 1.28088
354013 0.803860
354018 0.523939
354024 0.356142
354029 0.254015
354034 0.190018
354045 0.116275
354056 0.0787900
354078 0.0435900
354100 0.0283925
354139 0.0166331
354178 0.0116633
354256 0.00762507
354413 0.00525186
354725 0.00408210
355350 0.00319276
356600 0.00196345
357387 0.00145194
358175 0.00109961
359749 0.000684796
361324 0.000469722
362899 0.000347292
364473 0.000271929
366048 0.000222593
369197 0.000164451
372347 0.000133069
375496 0.000114411
381795 9.46906E-05
388093 8.56377E-05
394392 8.17642E-05
397541 8.14971E-05
400690 8.34535E-05
402265 8.68405E-05
403840 9.64041E-05
404627 0.000109139
405414 0.000142878
406202 0.000293869
406399 0.000421846
406497 0.000533241
406595 0.000708561
406694 0.00100679
406792 0.00157151
406841 0.00206032
406891 0.00281726
406940 0.00405541
406989 0.00619144
407045 0.0105614
407100 0.0166732
407128 0.0182480
407156 0.0172972
407211 0.0113328
407254 0.00748904
407296 0.00507027
407339 0.00358622
407382 0.00264796
407467 0.00160367
407552 0.00107968
407637 0.000783204
407723 0.000600766
407893 0.000397903
408064 0.000293989
408234 0.000233993
408575 0.000171137
408916 0.000140800
409257 0.000124047
409938 0.000107595
410620 0.000100722
411302 9.80405E-05
412666 9.94638E-05
414029 0.000109570
415393 0.000139273
416075 0.000175667
416416 0.000207638
416756 0.000258222
417097 0.000344731
417438 0.000509578
417609 0.000653073
417779 0.000876095
417950 0.00124263
418120 0.00187572
418310 0.00313508
418500 0.00480010
418595 0.00516010
418690 0.00483501
418880 0.00317884
419032 0.00210250
419183 0.00143271
419335 0.00102561
419487 0.000769925
419790 0.000486840
420093 0.000345232
420397 0.000265348
420700 0.000216206
421307 0.000161617
421914 0.000133692
422520 0.000117567
423734 0.000100699
424947 9.25931E-05
426160 8.81702E-05
428587 8.40506E-05
431014 8.28961E-05
433440 8.42069E-05
435867 9.54683E-05
437080 0.000141467
437687 0.000323639
437990 0.00103532
438142 0.00374995
438218 0.0135983
438256 0.0460593
438275 0.135945
438284 0.320753
438289 0.572310
438294 1.18022
438297 1.89228
438300 2.37056
438303 1.90579
438306 1.19081
438311 0.561118
438316 0.305643
438326 0.126858
438346 0.0423530
438386 0.0124036
438466 0.00340835
438626 0.000946171
438945 0.000301303
439584 0.000136302
440862 9.46652E-05
443418 8.46039E-05
448530 8.33800E-05
458753 8.74511E-05
468977 9.65347E-05
474088 0.000105713
476644 0.000113471
479200 0.000126185
481276 0.000144639
483352 0.000181843
484390 0.000217380
485428 0.000279397
486466 0.000400715
486985 0.000507339
487504 0.000670262
488252 0.00105889
489000 0.00154621
489374 0.00163406
489748 0.00152214
490496 0.00102951
491090 0.000716949
491684 0.000521467
492278 0.000402023
492872 0.000326852
494060 0.000244246
495248 0.000204109
497624 0.000171369
500000 0.000163574
502802 0.000175370
503502 0.000187803
504202 0.000218951
504552 0.000257593
504903 0.000352867
505253 0.000716846
505340 0.000979062
505428 0.00147650
505472 0.00190928
505515 0.00258100
505559 0.00369077
505603 0.00562608
505627 0.00730894
505652 0.00960156
505700 0.0154536
505724 0.0171779
505749 0.0164797
505797 0.0108430
505848 0.00616898
505899 0.00374897
505949 0.00248532
506000 0.00177228
506073 0.00119831
506147 0.000882659
506220 0.000692105
506294 0.000568806
506440 0.000424858
506587 0.000347634
506881 0.000272420
507174 0.000238955
507762 0.000212400
508349 0.000204294
510698 0.000213535
513046 0.000246723
515395 0.000305461
517744 0.000412636
520093 0.000631516
521267 0.000833957
522441 0.00116616
523616 0.00174532
524790 0.00279123
527100 0.00569705
528255 0.00472363
529410 0.00301639
530258 0.00213077
531105 0.00154918
531953 0.00116837
532800 0.000912556
534727 0.000579639
536654 0.000412326
538581 0.000317744
540509 0.000259463
544363 0.000194754
548217 0.000161924
552071 0.000143601
555926 0.000133699
559780 0.000134320
560743 0.000140052
561707 0.000156107
562189 0.000175698
562671 0.000220006
563152 0.000354804
563273 0.000431928
563393 0.000552045
563514 0.000749913
563634 0.00109291
563767 0.00176627
563900 0.00263609
563967 0.00280886
564033 0.00262367
564166 0.00175158
564273 0.00118794
564380 0.000839051
564487 0.000627414
564594 0.000495017
564808 0.000349718
565022 0.000278875
565236 0.000241151
565450 0.000220783
565879 0.000209608
566307 0.000232669
566735 0.000331367
567163 0.000892152
567377 0.00304468
567484 0.0108305
567537 0.0363090
567551 0.0578793
567564 0.105848
567578 0.245914
567584 0.435245
567591 0.867248
567596 1.39782
567600 1.77120
567605 1.44551
567609 0.904581
567615 0.469251
567622 0.271740
567634 0.119673
567646 0.0658210
567659 0.0415469
567709 0.0124397
567808 0.00349319
568007 0.00100698
568405 0.000351371
569202 0.000185695
569998 0.000180233
570396 0.000282727
570596 0.000706116
570695 0.00230335
570745 0.00794189
570770 0.0255253
570782 0.0690038
570788 0.145087
570795 0.404256
570800 0.800033
570803 0.637952
570805 0.395364
570812 0.142634
570818 0.0681537
570830 0.0251693
570855 0.00785213
570905 0.00228435
571005 0.000698106
571205 0.000273435
571604 0.000161593
572403 0.000130410
574000 0.000120017
577194 0.000117871
580388 0.000132521
581985 0.000196025
582784 0.000444252
583183 0.00138608
583283 0.00231045
583382 0.00477036
583432 0.00791324
583482 0.0157165
583507 0.0248772
583532 0.0448606
583545 0.0650771
583557 0.101729
583570 0.175833
583576 0.240931
583582 0.338630
583591 0.543581
583600 0.690915
583609 0.561404
583618 0.352564
583625 0.242541
583632 0.171861
583645 0.0957031
583659 0.0597844
583672 0.0405763
583700 0.0220008
583727 0.0137689
583781 0.00685289
583836 0.00411406
584054 0.00119632
584490 0.000394278
585361 0.000184248
587104 0.000131549
590590 0.000124081
594076 0.000151963
595819 0.000263862
596255 0.000376211
596691 0.000685715
596908 0.00110005
597126 0.00220499
597235 0.00362179
597344 0.00715188
597399 0.0113111
597453 0.0204693
597480 0.0298136
597508 0.0468438
597521 0.0609580
597535 0.0817322
597548 0.113113
597562 0.160681
597581 0.258348
597600 0.329002
597619 0.268068
597638 0.168281
597660 0.0954621
597683 0.0585040
597705 0.0387827
597727 0.0274087
597772 0.0156036
597816 0.0100388
597905 0.00515883
597994 0.00315590
598173 0.00156542
598351 0.000962100
598707 0.000508165
599063 0.000343174
600488 0.000182315
603339 0.000157776
604764 0.000174961
606189 0.000228975
606902 0.000300765
607614 0.000492139
607971 0.000743264
608327 0.00140630
608505 0.00225354
608594 0.00304104
608683 0.00436734
608772 0.00686535
608817 0.00902653
608861 0.0124021
608906 0.0180823
608951 0.0285353
608973 0.0372981
608995 0.0502441
609017 0.0700916
609040 0.100381
609070 0.161318
609100 0.204782
609130 0.166414
609161 0.104546
609190 0.0650435
609219 0.0426560
609249 0.0295826
609278 0.0215726
609337 0.0128150
609396 0.00846710
609455 0.00602085
609514 0.00451649
609632 0.00284756
609867 0.00150466
610103 0.00100037
610574 0.000660361
611045 0.000620334
611516 0.000773654
611751 0.000968214
611987 0.00133413
612223 0.00209697
612340 0.00281961
612458 0.00405330
612576 0.00641478
612635 0.00849308
612694 0.0117857
612752 0.0174468
612811 0.0282555
612841 0.0376460
612870 0.0520433
612900 0.0750459
612929 0.112312
613000 0.231691
613036 0.190083
613071 0.119580
613093 0.0879960
613115 0.0658394
613159 0.0395402
613203 0.0258843
613247 0.0181393
613291 0.0133697
613335 0.0102587
613423 0.00658879
613511 0.00460012
613599 0.00340910
613774 0.00211619
614126 0.00110143
614478 0.000730327
615181 0.000580970
615533 0.00106557
615709 0.00301798
615797 0.00940491
615841 0.0265174
615863 0.0600560
615874 0.104090
615879 0.143461
615884 0.202524
615900 0.419445
615908 0.344647
615916 0.217337
615925 0.122777
615934 0.0752387
615952 0.0352174
615970 0.0200349
615989 0.0129207
616025 0.00668108
616061 0.00412636
616134 0.00209312
616207 0.00131998
616353 0.000732076
616499 0.000512751
616791 0.000343792
617083 0.000277096
617666 0.000220337
618250 0.000194954
619417 0.000171879
620584 0.000162718
622918 0.000161324
625252 0.000175657
627586 0.000214120
628753 0.000252797
629920 0.000320999
631087 0.000456920
631671 0.000582062
632254 0.000791571
632838 0.00118420
633129 0.00152541
633421 0.00206374
633713 0.00298841
634005 0.00477528
634150 0.00635913
634296 0.00886442
634442 0.0130380
634588 0.0201569
634744 0.0318764
634900 0.0401867
635056 0.0333058
635212 0.0224904
635397 0.0156381
635582 0.0148466
635675 0.0169642
635767 0.0219878
635860 0.0327823
635906 0.0422234
635953 0.0559389
636100 0.110718
636174 0.0906035
636248 0.0575701
636297 0.0418287
636346 0.0310775
636445 0.0186981
636543 0.0124196
636642 0.00888762
636740 0.00671395
636839 0.00528426
637036 0.00357015
637233 0.00261296
637430 0.00201877
637824 0.00134119
638219 0.000978305
638613 0.000758812
639401 0.000515011
640189 0.000388288
640978 0.000313574
642555 0.000233111
644131 0.000192841
645708 0.000169857
648862 0.000146132
661476 0.000125127
667783 0.000125942
674090 0.000131829
680397 0.000156686
681973 0.000178630
683550 0.000236405
684338 0.000312675
685127 0.000517601
685521 0.000785738
685718 0.00104036
685915 0.00148014
686112 0.00233895
686211 0.00311335
686309 0.00437367
686408 0.00662486
686457 0.00847003
686507 0.0111889
686556 0.0154153
686605 0.0223500
686654 0.0344998
686704 0.0564231
686752 0.0905403
686800 0.114568
686848 0.0928342
686897 0.0582851
686946 0.0356239
686994 0.0230609
687043 0.0158645
687092 0.0115045
687141 0.00869338
687190 0.00679666
687288 0.00448354
687386 0.00319007
687484 0.00239761
687680 0.00152033
687876 0.00107273
688071 0.000814775
688463 0.000545801
689246 0.000348869
690029 0.000289913
691596 0.000358620
692379 0.000797097
692575 0.00123267
692771 0.00238937
692868 0.00386062
692966 0.00748659
693015 0.0116970
693064 0.0207756
693089 0.0297958
693113 0.0457334
693138 0.0769920
693150 0.103645
693162 0.142236
693181 0.227438
693200 0.283699
693219 0.226436
693238 0.141465
693250 0.103634
693262 0.0775325
693286 0.0465435
693310 0.0304845
693334 0.0213895
693381 0.0120988
693429 0.00777660
693525 0.00402274
693620 0.00249358
693811 0.00128622
694002 0.000830295
694384 0.000490217
694765 0.000370031
695529 0.000293963
696293 0.000290466
697057 0.000336056
697820 0.000486694
698202 0.000682526
698393 0.000862189
698584 0.00115943
698775 0.00170153
698870 0.00215623
698966 0.00284293
699061 0.00394596
699157 0.00585233
699252 0.00947177
699300 0.0125159
699348 0.0169407
699500 0.0388832
699538 0.0392181
699576 0.0350395
699653 0.0225581
699728 0.0137684
699804 0.00884119
699880 0.00605292
699955 0.00438123
700031 0.00331775
700107 0.00260558
700258 0.00174739
700410 0.00127301
700561 0.000984828
700864 0.000668666
701166 0.000508861
701469 0.000417556
702075 0.000323644
702680 0.000280099
703286 0.000257783
704497 0.000240656
706919 0.000249592
709341 0.000291354
711764 0.000378059
712975 0.000452774
714186 0.000566719
715397 0.000750502
716608 0.00106934
717819 0.00167326
718425 0.00217824
719030 0.00290312
721000 0.00640960
721418 0.00726225
721700 0.00973063
721841 0.0106336
721982 0.00901061
722216 0.00742197
722449 0.00824379
722566 0.0100602
722683 0.0145023
722741 0.0191401
722800 0.0276512
722858 0.0449798
722887 0.0604205
722917 0.0836597
722970 0.147651
723000 0.170501
723042 0.141361
723084 0.0901913
723115 0.0633168
723146 0.0458026
723177 0.0344060
723208 0.0267830
723270 0.0177341
723332 0.0128495
723395 0.00993358
723457 0.00805273
723581 0.00583831
723705 0.00460866
723830 0.00383668
724079 0.00291966
724576 0.00202160
725073 0.00155211
726068 0.00104373
727063 0.000772329
728058 0.000607543
729053 0.000500092
731043 0.000375290
733033 0.000314645
735023 0.000300841
736018 0.000325229
737013 0.000421696
737510 0.000561426
738008 0.000940393
738257 0.00142523
738381 0.00187275
738505 0.00261906
738630 0.00399998
738692 0.00517355
738754 0.00696727
738816 0.00989652
738878 0.0150695
738941 0.0251094
738972 0.0336635
739003 0.0459919
739051 0.0737198
739100 0.0932617
739149 0.0755700
739197 0.0474434
739244 0.0298511
739290 0.0197540
739337 0.0138081
739383 0.0101339
739476 0.00609119
739569 0.00406997
739662 0.00292720
739755 0.00222164
739941 0.00143429
740126 0.00102887
740312 0.000793186
740684 0.000543842
741427 0.000351431
742170 0.000278628
743656 0.000221893
745143 0.000199453
751088 0.000177156
754060 0.000181673
757033 0.000201541
758519 0.000225639
760006 0.000275767
760749 0.000323140
761492 0.000403829
762235 0.000557301
762607 0.000691546
762978 0.000903419
763309 0.00121428
763639 0.00176184
763804 0.00220889
763970 0.00287389
764135 0.00393585
764300 0.00580608
764404 0.00782955
764507 0.0111991
764611 0.0172713
764715 0.0288169
764900 0.0590225
764993 0.0490498
765085 0.0312926
765152 0.0221566
765220 0.0161183
765287 0.0121373
765354 0.00944315
765488 0.00619678
765622 0.00441025
765782 0.00316587
765941 0.00240441
766260 0.00155189
766579 0.00110677
766898 0.000844526
767536 0.000563538
768174 0.000424489
768813 0.000346008
769451 0.000297628
770727 0.000244055
772003 0.000217238
773279 0.000202627
775831 0.000190576
778384 0.000191511
780936 0.000208329
782212 0.000233198
783488 0.000301910
784126 0.000394734
784765 0.000648793
785084 0.000987268
785403 0.00188471
785562 0.00302735
785722 0.00585094
785801 0.00914028
785881 0.0162795
785921 0.0234179
785961 0.0362114
786001 0.0616214
786021 0.0837073
786041 0.116266
786070 0.186680
786100 0.237378
786130 0.193383
786159 0.121517
786184 0.0811199
786208 0.0560454
786233 0.0403779
786257 0.0302239
786306 0.0185658
786355 0.0124939
786453 0.00676086
786551 0.00425614
786747 0.00218025
786943 0.00136575
787335 0.000739367
787727 0.000507836
788511 0.000337940
789295 0.000278783
790862 0.000240678
792430 0.000233463
795565 0.000246464
798700 0.000281264
801835 0.000344643
804970 0.000463221
806538 0.000562316
808105 0.000709357
809673 0.000935883
811240 0.00130371
811941 0.00155524
812641 0.00195197
812991 0.00231483
813342 0.00309603
813517 0.00400514
813692 0.00617944
813779 0.00870168
813867 0.0142473
813911 0.0199142
813955 0.0303781
813976 0.0391588
813998 0.0522566
814020 0.0724120
814042 0.103554
814100 0.215257
814129 0.179697
814158 0.114405
814185 0.0732358
814212 0.0493871
814236 0.0369155
814259 0.0288059
814306 0.0194961
814353 0.0148424
814400 0.0123731
814588 0.00701872
814727 0.00481425
814866 0.00384732
815144 0.00308092
815700 0.00264033
817930 0.00196326
820160 0.00130327
822025 0.00103512
822491 0.00107009
822957 0.00127839
823190 0.00158418
823306 0.00187188
823423 0.00235019
823540 0.00321764
823656 0.00499950
823714 0.00666505
823773 0.00942245
823831 0.0143096
823889 0.0232814
824000 0.0472278
824056 0.0388071
824111 0.0246387
824173 0.0145840
824235 0.00931531
824297 0.00643870
824359 0.00474715
824484 0.00297344
824608 0.00212108
824732 0.00164841
824856 0.00135864
825105 0.00103377
825601 0.000757313
826098 0.000636725
827092 0.000523026
828085 0.000468876
829079 0.000448288
830072 0.000481129
830569 0.000557195
831066 0.000792213
831314 0.00111784
831562 0.00199762
831687 0.00313247
831811 0.00597953
831873 0.00935273
831935 0.0168641
831966 0.0245982
831997 0.0388876
832028 0.0688393
832044 0.0964751
832059 0.139463
832100 0.292756
832121 0.243590
832141 0.153740
832157 0.104601
832173 0.0734340
832189 0.0534183
832205 0.0403323
832237 0.0250332
832269 0.0169603
832332 0.00926064
832396 0.00586993
832524 0.00304227
832651 0.00192570
832906 0.00106170
833161 0.000738422
834181 0.000403285
835201 0.000331748
836221 0.000303028
838261 0.000281398
840302 0.000281358
842342 0.000301291
844382 0.000356475
845402 0.000411055
846422 0.000501969
847442 0.000660738
848462 0.000946624
850500 0.00179993
851519 0.00155755
852538 0.00107236
853545 0.000756857
854552 0.000591615
855559 0.000518176
856566 0.000512323
857573 0.000589103
858077 0.000683009
858580 0.000852256
859084 0.00117671
859335 0.00145554
859587 0.00188310
859839 0.00257891
860091 0.00379809
860342 0.00613361
860468 0.00809737
860594 0.0109070
860797 0.0173963
861000 0.0220777
861203 0.0180246
861406 0.0113980
861532 0.00843657
861658 0.00636181
861911 0.00389942
862163 0.00261949
862416 0.00189128
862668 0.00144292
862920 0.00114917
863425 0.000801861
863930 0.000612502
864435 0.000498012
865444 0.000371952
866454 0.000307313
867463 0.000269582
869482 0.000229570
871501 0.000211003
873520 0.000204513
874530 0.000206846
875539 0.000218716
876044 0.000234743
876549 0.000272311
876801 0.000312636
877053 0.000391784
877306 0.000579283
877432 0.000784080
877558 0.00118533
877619 0.00151949
877679 0.00201534
877800 0.00372740
877861 0.00469587
877921 0.00496827
878042 0.00323996
878110 0.00227595
878179 0.00163638
878247 0.00122720
878315 0.000961362
878452 0.000657588
878588 0.000501473
878725 0.000412199
878861 0.000356905
879134 0.000295520
879407 0.000264644
879680 0.000247544
880226 0.000231952
881318 0.000230088
882410 0.000248709
883605 0.000296996
884800 0.000383040
885455 0.000424244
886323 0.000423801
887190 0.000383167
888200 0.000334596
889573 0.000272888
890945 0.000229266
892160 0.000206763
893376 0.000193499
895806 0.000180704
898237 0.000176697
900667 0.000178016
903098 0.000185676
904313 0.000193791
905528 0.000207725
906743 0.000233747
907959 0.000290553
908566 0.000348606
909174 0.000458809
909478 0.000556937
909781 0.000718867
910085 0.00103030
910237 0.00132617
910389 0.00187207
910495 0.00257481
910600 0.00360293
910706 0.00413055
910811 0.00390208
910974 0.00440214
911055 0.00529585
911136 0.00679862
911217 0.00929996
911299 0.0136393
911380 0.0217218
911461 0.0376646
911600 0.0803033
911635 0.0780522
911670 0.0679062
911739 0.0430778
911806 0.0268356
911873 0.0175682
911941 0.0121794
912008 0.00888312
912075 0.00674690
912142 0.00529923
912276 0.00352789
912411 0.00253392
912545 0.00192348
912813 0.00124607
913082 0.000899676
913351 0.000699856
913888 0.000491858
914425 0.000393867
914962 0.000343122
916037 0.000307517
917111 0.000329524
918185 0.000449041
918723 0.000618468
918991 0.000779952
919260 0.00105628
919528 0.00158444
919663 0.00204835
919797 0.00278301
919931 0.00403961
920066 0.00642358
920133 0.00847808
920200 0.0116116
920267 0.0165716
920334 0.0245102
920417 0.0393015
920500 0.0500175
920583 0.0408146
920666 0.0256961
920764 0.0146445
920861 0.00903582
920959 0.00604354
921056 0.00431336
921153 0.00323585
921251 0.00252512
921446 0.00168077
921641 0.00121932
921836 0.000941029
922226 0.000637014
922615 0.000483612
923005 0.000395765
923785 0.000304796
924565 0.000262641
925345 0.000244264
925734 0.000244053
926124 0.000257983
926319 0.000279888
926514 0.000333852
926709 0.000509633
926904 0.00162909
926952 0.00269826
927000 0.00441849
927048 0.00494705
927096 0.00331063
927219 0.00101774
927280 0.000699698
927341 0.000533984
927464 0.000378021
927587 0.000310117
927832 0.000253628
928077 0.000230981
928568 0.000212676
929058 0.000205325
931020 0.000198781
934945 0.000217720
936907 0.000246419
938869 0.000308705
939850 0.000368900
940831 0.000472384
941812 0.000666183
942793 0.00105506
944400 0.00205759
945204 0.00181407
946007 0.00136191
946532 0.00127112
946844 0.00136642
947155 0.00162184
947200 0.00166816
947367 0.00182939
947534 0.00194351
947868 0.00221083
947900 0.00225462
947993 0.00239736
948086 0.00254135
948273 0.00268215
948645 0.00238213
948835 0.00250490
949025 0.00320468
949119 0.00397107
949214 0.00528050
949309 0.00758156
949404 0.0116663
949502 0.0182660
949600 0.0227824
949698 0.0184179
949796 0.0116997
949889 0.00754703
949981 0.00513743
950074 0.00370777
950166 0.00281369
950351 0.00181722
950536 0.00130807
950721 0.00101327
950906 0.000826499
951276 0.000609743
951646 0.000491331
952016 0.000418198
952756 0.000334060
953496 0.000287762
954236 0.000258781
955716 0.000224951
957196 0.000206253
958676 0.000194742
961636 0.000182212
967556 0.000177533
969036 0.000181318
970516 0.000191342
971256 0.000202120
971996 0.000222649
972736 0.000268424
973106 0.000315276
973476 0.000401375
973682 0.000482843
973888 0.000608235
974094 0.000804597
974300 0.00109881
974506 0.00144643
974712 0.00160744
974918 0.00139970
975124 0.00105038
975370 0.000728469
975617 0.000535497
975863 0.000422078
976110 0.000352697
976602 0.000278179
977095 0.000242450
977588 0.000223444
978081 0.000212880
979066 0.000204789
981037 0.000221430
982023 0.000257281
982515 0.000293611
983008 0.000356851
983306 0.000418394
983604 0.000508444
983902 0.000637406
984200 0.000803032
984796 0.000987555
985392 0.000700733
985716 0.000543854
986040 0.000434931
986364 0.000362673
986687 0.000314352
987335 0.000257759
987983 0.000228140
988631 0.000211210
989278 0.000200958
990574 0.000190742
991869 0.000188114
993164 0.000191406
994460 0.000203300
995755 0.000232423
996728 0.000267538
997700 0.000280379
998673 0.000249750
999645 0.000217837
999999 0.000209641
1.00000E+06 0.000266000
1.00530E+06 0.000267049
1.00710E+06 0.000267405
1.00780E+06 0.000267544
1.01000E+06 0.000267979
1.01010E+06 0.000267999
1.01820E+06 0.000269601
1.01900E+06 0.000269760
1.01990E+06 0.000269938
1.02340E+06 0.000270630
1.02440E+06 0.000270828
1.02580E+06 0.000271105
1.02700E+06 0.000271343
1.02830E+06 0.000271600
1.03000E+06 0.000271936
1.03220E+06 0.000272372
1.03320E+06 0.000272570
1.03440E+06 0.000272807
1.03560E+06 0.000273045
1.03650E+06 0.000273223
1.03760E+06 0.000273440
1.04560E+06 0.000275023
1.04700E+06 0.000275300
1.04760E+06 0.000275419
1.04850E+06 0.000275597
1.05370E+06 0.000276626
1.05520E+06 0.000276923
1.05600E+06 0.000277081
1.05710E+06 0.000277299
1.05800E+06 0.000277477
1.05870E+06 0.000277616
1.05990E+06 0.000277853
1.06120E+06 0.000278110
1.06830E+06 0.000279515
1.07100E+06 0.000280049
1.07340E+06 0.000280524
1.07590E+06 0.000281019
1.07720E+06 0.000281276
1.07790E+06 0.000281415
1.07940E+06 0.000281712
1.08140E+06 0.000282107
1.08230E+06 0.000282286
1.08410E+06 0.000282642
1.08640E+06 0.000283097
1.08740E+06 0.000283295
1.08820E+06 0.000283453
1.08910E+06 0.000283631
1.09020E+06 0.000283849
1.09120E+06 0.000284047
1.09230E+06 0.000284264
1.10140E+06 0.000286065
1.10290E+06 0.000286362
1.10450E+06 0.000286678
1.10770E+06 0.000287312
1.10950E+06 0.000287668
1.11030E+06 0.000287826
1.11060E+06 0.000287885
1.11240E+06 0.000288242
1.11420E+06 0.000288598
1.11640E+06 0.000289033
1.11770E+06 0.000289290
1.11880E+06 0.000289508
1.12130E+06 0.000290003
1.12250E+06 0.000290240
1.12350E+06 0.000290438
1.12410E+06 0.000290557
1.12560E+06 0.000290854
1.12730E+06 0.000291190
1.12930E+06 0.000291586
1.13010E+06 0.000291744
1.13100E+06 0.000291922
1.13550E+06 0.000292813
1.13640E+06 0.000292991
1.13750E+06 0.000293208
1.14090E+06 0.000293881
1.14650E+06 0.000294989
1.14760E+06 0.000295207
1.14890E+06 0.000295464
1.15000E+06 0.000295682
1.15190E+06 0.000296058
1.15620E+06 0.000296909
1.16260E+06 0.000298175
1.16370E+06 0.000298393
1.16490E+06 0.000298630
1.17180E+06 0.000299996
1.17350E+06 0.000300332
1.17620E+06 0.000300866
1.17870E+06 0.000301361
1.18190E+06 0.000301994
1.18490E+06 0.000302588
1.18620E+06 0.000302845
1.18750E+06 0.000303102
1.18910E+06 0.000303419
1.19000E+06 0.000303597
1.19070E+06 0.000303736
1.19400E+06 0.000304389
1.19740E+06 0.000305061
1.19840E+06 0.000305259
1.19930E+06 0.000305437
1.20110E+06 0.000305794
1.20440E+06 0.000306447
1.20520E+06 0.000306605
1.20610E+06 0.000306783
1.21240E+06 0.000308030
1.21390E+06 0.000308326
1.21480E+06 0.000308505
1.21670E+06 0.000308880
1.22300E+06 0.000310127
1.22380E+06 0.000310285
1.22590E+06 0.000310701
1.22700E+06 0.000310919
1.22830E+06 0.000311176
1.23000E+06 0.000311512
1.23100E+06 0.000311710
1.23230E+06 0.000311967
1.23440E+06 0.000312383
1.23670E+06 0.000312838
1.23960E+06 0.000313412
1.24580E+06 0.000314639
1.24750E+06 0.000314975
1.24930E+06 0.000315331
1.25000E+06 0.000315470
1.25040E+06 0.000315595
1.25530E+06 0.000317135
1.25910E+06 0.000318328
1.26040E+06 0.000318737
1.27000E+06 0.000321752
1.27320E+06 0.000322757
1.27620E+06 0.000323700
1.27900E+06 0.000324579
1.28120E+06 0.000325270
1.28360E+06 0.000326024
1.28480E+06 0.000326401
1.28670E+06 0.000326998
1.28970E+06 0.000327940
1.29080E+06 0.000328286
1.29220E+06 0.000328726
1.30460E+06 0.000332621
1.30640E+06 0.000333186
1.31020E+06 0.000334380
1.31140E+06 0.000334757
1.31270E+06 0.000335165
1.31440E+06 0.000335699
1.31980E+06 0.000337395
1.32280E+06 0.000338338
1.32390E+06 0.000338683
1.32510E+06 0.000339060
1.32750E+06 0.000339814
1.33180E+06 0.000341165
1.33820E+06 0.000343175
1.33930E+06 0.000343521
1.34080E+06 0.000343992
1.34190E+06 0.000344338
1.34340E+06 0.000344809
1.34510E+06 0.000345343
1.34690E+06 0.000345908
1.34800E+06 0.000346254
1.34950E+06 0.000346725
1.35080E+06 0.000347133
1.35280E+06 0.000347761
1.36030E+06 0.000350117
1.36250E+06 0.000350808
1.36560E+06 0.000351782
1.36780E+06 0.000352473
1.37210E+06 0.000353824
1.37320E+06 0.000354170
1.37520E+06 0.000354798
1.37990E+06 0.000356274
1.38950E+06 0.000359290
1.39360E+06 0.000360578
1.39840E+06 0.000362085
1.40440E+06 0.000363970
1.40580E+06 0.000364410
1.40720E+06 0.000364850
1.40980E+06 0.000365666
1.41160E+06 0.000366232
1.41610E+06 0.000367645
1.42290E+06 0.000369781
1.42430E+06 0.000370221
1.42600E+06 0.000370755
1.42740E+06 0.000371195
1.42910E+06 0.000371729
1.43170E+06 0.000372546
1.43480E+06 0.000373519
1.43960E+06 0.000375027
1.44060E+06 0.000375341
1.44280E+06 0.000376032
1.44780E+06 0.000377603
1.45540E+06 0.000379990
1.46720E+06 0.000383697
1.47040E+06 0.000384702
1.47520E+06 0.000386210
1.47890E+06 0.000387372
1.48220E+06 0.000388409
1.48420E+06 0.000389037
1.48620E+06 0.000389665
1.49710E+06 0.000393089
1.49920E+06 0.000393749
1.50000E+06 0.000394000
1.50050E+06 0.000394232
1.50200E+06 0.000394927
1.50530E+06 0.000396456
1.50690E+06 0.000397198
1.50950E+06 0.000398403
1.51280E+06 0.000399932
1.51390E+06 0.000400442
1.51490E+06 0.000400905
1.51780E+06 0.000402249
1.52120E+06 0.000403825
1.52300E+06 0.000404659
1.52460E+06 0.000405401
1.52770E+06 0.000406837
1.52960E+06 0.000407718
1.53430E+06 0.000409896
1.54150E+06 0.000413233
1.54340E+06 0.000414113
1.54630E+06 0.000415457
1.55090E+06 0.000417589
1.55120E+06 0.000417728
1.55200E+06 0.000418099
1.55300E+06 0.000418562
1.55470E+06 0.000419350
1.55760E+06 0.000420694
1.56250E+06 0.000422965
1.56420E+06 0.000423753
1.56580E+06 0.000424494
1.56690E+06 0.000425004
1.56830E+06 0.000425653
1.56960E+06 0.000426255
1.57260E+06 0.000427646
1.57650E+06 0.000429453
1.57790E+06 0.000430102
1.57930E+06 0.000430751
1.58200E+06 0.000432002
1.58370E+06 0.000432790
1.58510E+06 0.000433438
1.58790E+06 0.000434736
1.59070E+06 0.000436034
1.59290E+06 0.000437053
1.59460E+06 0.000437841
1.59630E+06 0.000438629
1.59940E+06 0.000440066
1.60190E+06 0.000441224
1.60280E+06 0.000441641
1.60420E+06 0.000442290
1.60640E+06 0.000443310
1.60760E+06 0.000443866
1.60900E+06 0.000444515
1.61360E+06 0.000446646
1.61560E+06 0.000447573
1.61730E+06 0.000448361
1.61840E+06 0.000448871
1.62040E+06 0.000449798
1.62480E+06 0.000451837
1.62650E+06 0.000452625
1.62790E+06 0.000453274
1.63400E+06 0.000456101
1.63780E+06 0.000457862
1.63900E+06 0.000458418
1.64100E+06 0.000459345
1.64250E+06 0.000460040
1.64370E+06 0.000460596
1.64520E+06 0.000461291
1.64660E+06 0.000461940
1.64930E+06 0.000463191
1.65130E+06 0.000464118
1.65730E+06 0.000466899
1.66120E+06 0.000468706
1.66470E+06 0.000470328
1.66740E+06 0.000471579
1.67130E+06 0.000473387
1.67800E+06 0.000476492
1.68010E+06 0.000477465
1.68500E+06 0.000479736
1.68930E+06 0.000481729
1.69170E+06 0.000482841
1.69480E+06 0.000484277
1.69750E+06 0.000485529
1.69940E+06 0.000486409
1.70160E+06 0.000487429
1.71280E+06 0.000492619
1.71460E+06 0.000493454
1.71680E+06 0.000494473
1.71780E+06 0.000494936
1.72000E+06 0.000495956
1.72500E+06 0.000498273
1.72690E+06 0.000499154
1.72910E+06 0.000500173
1.74120E+06 0.000505781
1.74540E+06 0.000507727
1.74930E+06 0.000509535
1.75000E+06 0.000509859
1.75150E+06 0.000510730
1.75350E+06 0.000511891
1.75510E+06 0.000512820
1.76030E+06 0.000515839
1.76190E+06 0.000516768
1.76390E+06 0.000517929
1.76650E+06 0.000519438
1.76980E+06 0.000521354
1.77670E+06 0.000525360
1.77900E+06 0.000526695
1.78030E+06 0.000527450
1.78300E+06 0.000529018
1.78660E+06 0.000531108
1.78830E+06 0.000532095
1.79030E+06 0.000533256
1.79630E+06 0.000536739
1.79730E+06 0.000537320
1.79830E+06 0.000537900
1.80030E+06 0.000539061
1.80300E+06 0.000540629
1.80470E+06 0.000541616
1.80640E+06 0.000542603
1.81080E+06 0.000545157
1.81290E+06 0.000546377
1.81830E+06 0.000549512
1.82070E+06 0.000550905
1.82210E+06 0.000551718
1.82480E+06 0.000553285
1.83070E+06 0.000556711
1.83620E+06 0.000559904
1.83870E+06 0.000561355
1.84320E+06 0.000563968
1.84840E+06 0.000566987
1.85020E+06 0.000568032
1.85330E+06 0.000569831
1.85580E+06 0.000571283
1.85650E+06 0.000571689
1.85790E+06 0.000572502
1.86390E+06 0.000575985
1.86680E+06 0.000577669
1.86930E+06 0.000579120
1.87210E+06 0.000580746
1.87430E+06 0.000582023
1.88180E+06 0.000586377
1.88580E+06 0.000588700
1.88870E+06 0.000590383
1.89300E+06 0.000592880
1.89520E+06 0.000594157
1.89850E+06 0.000596073
1.90320E+06 0.000598801
1.90540E+06 0.000600079
1.90800E+06 0.000601588
1.91570E+06 0.000606059
1.91760E+06 0.000607162
1.91940E+06 0.000608207
1.92280E+06 0.000610181
1.92500E+06 0.000611458
1.92760E+06 0.000612967
1.93100E+06 0.000614941
1.93660E+06 0.000618192
1.93920E+06 0.000619702
1.94110E+06 0.000620805
1.94340E+06 0.000622140
1.94560E+06 0.000623417
1.94790E+06 0.000624753
1.95100E+06 0.000626552
1.95480E+06 0.000628759
1.95670E+06 0.000629862
1.95860E+06 0.000630965
1.96200E+06 0.000632939
1.96470E+06 0.000634506
1.96740E+06 0.000636074
1.96970E+06 0.000637409
1.97200E+06 0.000638744
1.97470E+06 0.000640312
1.97940E+06 0.000643040
1.98910E+06 0.000648672
1.99340E+06 0.000651168
1.99500E+06 0.000652097
1.99970E+06 0.000654826
2.00000E+06 0.000655000
2.00450E+06 0.000658575
2.00640E+06 0.000660084
2.00880E+06 0.000661991
2.01240E+06 0.000664851
2.01560E+06 0.000667393
2.01760E+06 0.000668982
2.01920E+06 0.000670253
2.02120E+06 0.000671841
2.02480E+06 0.000674701
2.02720E+06 0.000676608
2.02960E+06 0.000678514
2.03120E+06 0.000679786
2.03330E+06 0.000681454
2.03810E+06 0.000685267
2.04420E+06 0.000690113
2.04950E+06 0.000694323
2.05240E+06 0.000696627
2.05690E+06 0.000700202
2.05940E+06 0.000702188
2.06180E+06 0.000704094
2.06430E+06 0.000706080
2.06760E+06 0.000708702
2.07010E+06 0.000710688
2.07260E+06 0.000712674
2.07510E+06 0.000714660
2.07800E+06 0.000716964
2.08140E+06 0.000719665
2.08310E+06 0.000721015
2.08560E+06 0.000723001
2.09150E+06 0.000727688
2.09360E+06 0.000729356
2.09650E+06 0.000731660
2.09910E+06 0.000733726
2.10160E+06 0.000735712
2.10380E+06 0.000737459
2.10720E+06 0.000740160
2.11060E+06 0.000742861
2.11660E+06 0.000747628
2.12040E+06 0.000750646
2.12260E+06 0.000752394
2.12910E+06 0.000757558
2.13170E+06 0.000759623
2.13820E+06 0.000764787
2.14130E+06 0.000767250
2.14350E+06 0.000768997
2.14610E+06 0.000771063
2.14960E+06 0.000773843
2.15180E+06 0.000775591
2.15530E+06 0.000778371
2.15800E+06 0.000780516
2.16060E+06 0.000782582
2.16420E+06 0.000785441
2.16910E+06 0.000789334
2.17490E+06 0.000793942
2.18290E+06 0.000800297
2.18790E+06 0.000804269
2.19060E+06 0.000806414
2.19470E+06 0.000809671
2.19690E+06 0.000811419
2.20190E+06 0.000815391
2.21060E+06 0.000822302
2.21290E+06 0.000824129
2.21570E+06 0.000826353
2.21840E+06 0.000828498
2.22120E+06 0.000830723
2.22630E+06 0.000834774
2.23050E+06 0.000838111
2.23330E+06 0.000840335
2.23610E+06 0.000842559
2.23930E+06 0.000845101
2.24310E+06 0.000848120
2.24640E+06 0.000850742
2.24820E+06 0.000852172
2.25000E+06 0.000853601
2.25340E+06 0.000856680
2.25530E+06 0.000858401
2.26520E+06 0.000867366
2.27190E+06 0.000873434
2.27960E+06 0.000880407
2.28200E+06 0.000882580
2.28920E+06 0.000889101
2.29600E+06 0.000895259
2.30280E+06 0.000901417
2.30720E+06 0.000905401
2.31010E+06 0.000908028
2.31160E+06 0.000909386
2.31310E+06 0.000910744
2.31600E+06 0.000913371
2.31900E+06 0.000916087
2.32140E+06 0.000918261
2.32390E+06 0.000920525
2.33430E+06 0.000929943
2.33930E+06 0.000934471
2.34430E+06 0.000938999
2.34830E+06 0.000942621
2.35080E+06 0.000944885
2.35430E+06 0.000948055
2.35740E+06 0.000950862
2.36040E+06 0.000953579
2.36190E+06 0.000954937
2.36650E+06 0.000959103
2.37100E+06 0.000963178
2.37610E+06 0.000967797
2.37870E+06 0.000970151
2.38070E+06 0.000971963
2.38230E+06 0.000973412
2.38480E+06 0.000975676
2.38640E+06 0.000977125
2.39100E+06 0.000981290
2.39460E+06 0.000984550
2.39720E+06 0.000986905
2.40240E+06 0.000991614
2.40760E+06 0.000996323
2.41340E+06 0.00100158
2.41750E+06 0.00100529
2.41860E+06 0.00100629
2.42280E+06 0.00101009
2.42590E+06 0.00101290
2.42860E+06 0.00101534
2.43120E+06 0.00101770
2.44020E+06 0.00102585
2.44500E+06 0.00103019
2.44930E+06 0.00103409
2.45680E+06 0.00104088
2.46000E+06 0.00104378
2.46490E+06 0.00104821
2.46760E+06 0.00105066
2.47140E+06 0.00105410
2.47570E+06 0.00105799
2.47840E+06 0.00106044
2.48120E+06 0.00106298
2.48330E+06 0.00106488
2.49320E+06 0.00107384
2.49540E+06 0.00107583
2.49810E+06 0.00107828
2.50000E+06 0.00108000
2.50030E+06 0.00108012
2.50260E+06 0.00108105
2.50530E+06 0.00108215
2.50860E+06 0.00108348
2.51470E+06 0.00108595
2.52090E+06 0.00108846
2.52480E+06 0.00109004
2.52700E+06 0.00109093
2.52930E+06 0.00109186
2.53550E+06 0.00109437
2.53880E+06 0.00109570
2.54450E+06 0.00109801
2.54900E+06 0.00109983
2.55300E+06 0.00110145
2.55580E+06 0.00110258
2.55930E+06 0.00110400
2.56160E+06 0.00110493
2.56500E+06 0.00110630
2.56960E+06 0.00110817
2.57420E+06 0.00111003
2.57710E+06 0.00111120
2.58340E+06 0.00111375
2.59390E+06 0.00111800
2.59560E+06 0.00111869
2.59800E+06 0.00111966
2.60380E+06 0.00112201
2.60910E+06 0.00112415
2.61500E+06 0.00112654
2.61850E+06 0.00112795
2.62680E+06 0.00113131
2.62723E+06 0.00113149
2.62723E+06 0.00113149
2.62770E+06 0.00113168
2.62980E+06 0.00113253
2.63520E+06 0.00113471
2.64530E+06 0.00113880
2.64830E+06 0.00114001
2.65070E+06 0.00114098
2.65500E+06 0.00114272
2.65800E+06 0.00114394
2.66280E+06 0.00114588
2.67010E+06 0.00114884
2.67250E+06 0.00114981
2.67440E+06 0.00115058
2.67740E+06 0.00115179
2.68290E+06 0.00115402
2.68720E+06 0.00115576
2.69220E+06 0.00115778
2.70000E+06 0.00116093
2.70140E+06 0.00116150
2.70510E+06 0.00116300
2.70950E+06 0.00116478
2.71510E+06 0.00116705
2.72140E+06 0.00116959
2.72570E+06 0.00117133
2.72950E+06 0.00117287
2.73140E+06 0.00117364
2.74210E+06 0.00117797
2.74790E+06 0.00118032
2.75000E+06 0.00118117
2.75230E+06 0.00118015
2.75490E+06 0.00117899
2.75800E+06 0.00117761
2.76510E+06 0.00117445
2.77020E+06 0.00117219
2.77600E+06 0.00116961
2.77990E+06 0.00116787
2.78700E+06 0.00116472
2.79350E+06 0.00116183
2.80000E+06 0.00115893
2.80460E+06 0.00115689
2.80920E+06 0.00115484
2.81710E+06 0.00115133
2.81910E+06 0.00115044
2.82440E+06 0.00114808
2.82570E+06 0.00114751
2.83040E+06 0.00114542
2.83300E+06 0.00114426
2.83770E+06 0.00114217
2.84300E+06 0.00113981
2.84570E+06 0.00113861
2.85380E+06 0.00113501
2.85710E+06 0.00113354
2.86590E+06 0.00112963
2.87410E+06 0.00112598
2.87880E+06 0.00112389
2.88560E+06 0.00112087
2.89250E+06 0.00111780
2.89590E+06 0.00111629
2.90000E+06 0.00111447
2.90970E+06 0.00111015
2.91600E+06 0.00110735
2.92080E+06 0.00110522
2.92500E+06 0.00110335
2.92850E+06 0.00110179
2.93900E+06 0.00109713
2.94330E+06 0.00109521
2.94890E+06 0.00109272
2.95460E+06 0.00109019
2.96240E+06 0.00108672
2.96810E+06 0.00108419
2.97380E+06 0.00108165
2.98460E+06 0.00107685
2.99100E+06 0.00107400
2.99460E+06 0.00107240
3.00000E+06 0.00107000
3.00330E+06 0.00106723
3.01130E+06 0.00106053
3.01720E+06 0.00105558
3.02670E+06 0.00104761
3.03410E+06 0.00104141
3.03700E+06 0.00103898
3.04590E+06 0.00103151
3.05560E+06 0.00102338
3.05780E+06 0.00102154
3.06530E+06 0.00101525
3.06750E+06 0.00101340
3.07580E+06 0.00100644
3.08410E+06 0.000999482
3.08790E+06 0.000996296
3.09320E+06 0.000991852
3.09620E+06 0.000989336
3.10000E+06 0.000986150
3.10770E+06 0.000979694
3.11230E+06 0.000975837
3.12300E+06 0.000966865
3.12920E+06 0.000961666
3.13920E+06 0.000953281
3.14780E+06 0.000946070
3.15250E+06 0.000942129
3.16110E+06 0.000934918
3.16420E+06 0.000932318
3.16970E+06 0.000927707
3.17370E+06 0.000924353
3.17840E+06 0.000920412
3.18550E+06 0.000914458
3.19670E+06 0.000905067
3.20000E+06 0.000902300
3.21030E+06 0.000893664
3.21325E+06 0.000891191
3.21325E+06 0.000891190
3.21670E+06 0.000888297
3.22080E+06 0.000884859
3.23290E+06 0.000874713
3.24100E+06 0.000867922
3.24510E+06 0.000864484
3.25000E+06 0.000860375
3.25080E+06 0.000859868
3.25900E+06 0.000854674
3.27140E+06 0.000846818
3.27220E+06 0.000846311
3.27960E+06 0.000841623
3.28630E+06 0.000837379
3.29040E+06 0.000834782
3.29630E+06 0.000831044
3.30000E+06 0.000828700
3.30460E+06 0.000825786
3.31300E+06 0.000820465
3.32150E+06 0.000815080
3.32400E+06 0.000813496
3.33160E+06 0.000808681
3.33760E+06 0.000804880
3.34350E+06 0.000801143
3.34780E+06 0.000798419
3.36070E+06 0.000790247
3.36330E+06 0.000788600
3.37710E+06 0.000779857
3.38310E+06 0.000776056
3.38580E+06 0.000774346
3.39010E+06 0.000771622
3.39710E+06 0.000767187
3.40000E+06 0.000765350
3.40320E+06 0.000763323
3.41020E+06 0.000758888
3.41900E+06 0.000753314
3.42520E+06 0.000749386
3.42790E+06 0.000747675
3.43230E+06 0.000744888
3.43680E+06 0.000742037
3.44300E+06 0.000738110
3.44830E+06 0.000734752
3.45910E+06 0.000727910
3.46540E+06 0.000723919
3.46990E+06 0.000721068
3.47530E+06 0.000717648
3.48800E+06 0.000709602
3.49196E+06 0.000707091
3.49197E+06 0.000707090
3.49710E+06 0.000703837
3.50000E+06 0.000702000
3.50350E+06 0.000700576
3.51550E+06 0.000695694
3.52560E+06 0.000691585
3.53390E+06 0.000688208
3.53670E+06 0.000687069
3.54320E+06 0.000684425
3.55540E+06 0.000679461
3.56000E+06 0.000677590
3.56570E+06 0.000675271
3.57040E+06 0.000673359
3.57700E+06 0.000670674
3.57980E+06 0.000669535
3.58640E+06 0.000666850
3.59400E+06 0.000663758
3.59880E+06 0.000661805
3.60000E+06 0.000661317
3.61700E+06 0.000654401
3.62270E+06 0.000652082
3.62850E+06 0.000649722
3.63430E+06 0.000647362
3.64210E+06 0.000644189
3.64690E+06 0.000642236
3.66060E+06 0.000636663
3.67040E+06 0.000632676
3.67630E+06 0.000630275
3.69800E+06 0.000621447
3.70000E+06 0.000620633
3.70900E+06 0.000616972
3.71500E+06 0.000614531
3.72100E+06 0.000612090
3.72500E+06 0.000610463
3.72643E+06 0.000609882
3.72643E+06 0.000609882
3.72900E+06 0.000608835
3.74510E+06 0.000602285
3.75000E+06 0.000600292
3.75830E+06 0.000597688
3.76340E+06 0.000596088
3.76650E+06 0.000595116
3.77980E+06 0.000590943
3.78800E+06 0.000588371
3.79520E+06 0.000586112
3.80000E+06 0.000584606
3.80970E+06 0.000581563
3.82850E+06 0.000575665
3.83470E+06 0.000573720
3.84840E+06 0.000569423
3.85470E+06 0.000567446
3.86960E+06 0.000562772
3.88020E+06 0.000559446
3.88560E+06 0.000557752
3.89310E+06 0.000555400
3.90000E+06 0.000553235
3.90060E+06 0.000553047
3.91680E+06 0.000547965
3.92110E+06 0.000546616
3.92760E+06 0.000544577
3.93630E+06 0.000541847
3.93881E+06 0.000541060
3.93881E+06 0.000541059
3.94730E+06 0.000538396
3.95820E+06 0.000534977
3.96558E+06 0.000532662
3.96558E+06 0.000532661
3.98017E+06 0.000528085
3.98017E+06 0.000528084
4.00000E+06 0.000521864
4.01508E+06 0.000518282
4.01508E+06 0.000518282
4.01740E+06 0.000517731
4.02840E+06 0.000515117
4.03520E+06 0.000513502
4.04880E+06 0.000510271
4.05658E+06 0.000508424
4.05658E+06 0.000508423
4.05910E+06 0.000507825
4.06462E+06 0.000506514
4.06462E+06 0.000506514
4.07015E+06 0.000505201
4.07015E+06 0.000505201
4.08780E+06 0.000501007
4.08900E+06 0.000500722
4.09580E+06 0.000499107
4.09710E+06 0.000498798
4.10000E+06 0.000498109
4.10050E+06 0.000497990
4.10521E+06 0.000496870
4.10522E+06 0.000496870
4.11450E+06 0.000494665
4.12591E+06 0.000491953
4.12592E+06 0.000491953
4.12970E+06 0.000491054
4.14532E+06 0.000487344
4.14532E+06 0.000487344
4.15200E+06 0.000485756
4.15910E+06 0.000484070
4.16108E+06 0.000483599
4.16108E+06 0.000483599
4.17340E+06 0.000480673
4.17580E+06 0.000480103
4.17917E+06 0.000479302
4.17917E+06 0.000479302
4.20000E+06 0.000474354
4.20069E+06 0.000474191
4.20069E+06 0.000474191
4.20450E+06 0.000473285
4.20570E+06 0.000473000
4.22140E+06 0.000469271
4.22580E+06 0.000468226
4.22580E+06 0.000468226
4.23140E+06 0.000466895
4.23915E+06 0.000465054
4.23915E+06 0.000465054
4.24820E+06 0.000462904
4.25000E+06 0.000462477
4.25001E+06 0.000462475
4.25001E+06 0.000462474
4.25052E+06 0.000462388
4.25052E+06 0.000462388
4.25680E+06 0.000461302
4.26050E+06 0.000460662
4.27280E+06 0.000458536
4.27413E+06 0.000458307
4.27413E+06 0.000458307
4.27890E+06 0.000457482
4.27920E+06 0.000457430
4.27920E+06 0.000457430
4.28307E+06 0.000456761
4.28307E+06 0.000456761
4.29130E+06 0.000455339
4.30000E+06 0.000453836
4.30130E+06 0.000453611
4.30880E+06 0.000452315
4.31380E+06 0.000451451
4.31701E+06 0.000450897
4.31701E+06 0.000450897
4.33894E+06 0.000447106
4.33894E+06 0.000447106
4.34417E+06 0.000446203
4.34417E+06 0.000446203
4.37960E+06 0.000440080
4.37960E+06 0.000440079
4.38220E+06 0.000439630
4.40000E+06 0.000436554
4.40416E+06 0.000435835
4.40416E+06 0.000435835
4.40530E+06 0.000435638
4.40660E+06 0.000435413
4.41830E+06 0.000433391
4.42435E+06 0.000432345
4.42436E+06 0.000432345
4.43000E+06 0.000431369
4.44345E+06 0.000429045
4.44345E+06 0.000429045
4.44650E+06 0.000428518
4.45150E+06 0.000427654
4.46555E+06 0.000425225
4.46555E+06 0.000425225
4.48380E+06 0.000422071
4.48465E+06 0.000421925
4.48465E+06 0.000421925
4.48920E+06 0.000421138
4.50000E+06 0.000419272
4.50223E+06 0.000418996
4.50223E+06 0.000418996
4.51180E+06 0.000417812
4.52520E+06 0.000416154
4.53600E+06 0.000414817
4.54550E+06 0.000413642
4.56868E+06 0.000410774
4.56868E+06 0.000410774
4.57950E+06 0.000409435
4.58640E+06 0.000408581
4.59880E+06 0.000407047
4.59920E+06 0.000406998
4.59920E+06 0.000406998
4.60000E+06 0.000406899
4.62370E+06 0.000403966
4.63236E+06 0.000402895
4.63236E+06 0.000402895
4.64844E+06 0.000400905
4.64844E+06 0.000400905
4.65580E+06 0.000399994
4.66280E+06 0.000399128
4.69670E+06 0.000394934
4.69820E+06 0.000394748
4.70000E+06 0.000394525
4.70270E+06 0.000394192
4.70270E+06 0.000394191
4.71502E+06 0.000392667
4.71502E+06 0.000392667
4.72099E+06 0.000391929
4.72099E+06 0.000391929
4.72680E+06 0.000391209
4.73385E+06 0.000390337
4.73385E+06 0.000390337
4.73423E+06 0.000390290
4.73423E+06 0.000390290
4.75000E+06 0.000388339
4.76580E+06 0.000386990
4.76720E+06 0.000386871
4.77300E+06 0.000386376
4.78510E+06 0.000385343
4.78510E+06 0.000385343
4.79500E+06 0.000384498
4.80000E+06 0.000384071
4.82000E+06 0.000382364
4.83630E+06 0.000380973
4.85343E+06 0.000379511
4.85343E+06 0.000379511
4.86256E+06 0.000378731
4.86256E+06 0.000378731
4.86770E+06 0.000378292
4.88570E+06 0.000376756
4.89940E+06 0.000375587
4.90000E+06 0.000375536
4.91450E+06 0.000374298
4.92830E+06 0.000373120
4.95280E+06 0.000371029
4.96360E+06 0.000370107
4.99310E+06 0.000367589
5.00000E+06 0.000367000
5.00183E+06 0.000366961
5.00183E+06 0.000366961
5.05006E+06 0.000365940
5.05006E+06 0.000365940
5.05007E+06 0.000365940
5.10000E+06 0.000364882
5.20000E+06 0.000362765
5.25000E+06 0.000361706
5.30000E+06 0.000364701
5.40000E+06 0.000370691
5.50000E+06 0.000376681
5.60000E+06 0.000389790
5.70000E+06 0.000402898
5.75000E+06 0.000409452
5.80000E+06 0.000419562
5.81166E+06 0.000421919
5.81166E+06 0.000421920
5.90000E+06 0.000439781
6.00000E+06 0.000460000
6.10000E+06 0.000486860
6.16442E+06 0.000504164
6.16442E+06 0.000504164
6.16442E+06 0.000504164
6.20000E+06 0.000513720
6.25000E+06 0.000527150
6.30000E+06 0.000543011
6.40000E+06 0.000574733
6.40594E+06 0.000576617
6.40594E+06 0.000576618
6.50000E+06 0.000606455
6.60000E+06 0.000641072
6.67306E+06 0.000666364
6.67306E+06 0.000666364
6.70000E+06 0.000675689
6.71232E+06 0.000679952
6.71232E+06 0.000679953
6.75000E+06 0.000692998
6.80000E+06 0.000710398
6.90000E+06 0.000745199
7.00000E+06 0.000780000
7.01024E+06 0.000783576
7.01025E+06 0.000783577
7.04404E+06 0.000795376
7.04404E+06 0.000795376
7.05851E+06 0.000800428
7.05851E+06 0.000800428
7.10000E+06 0.000814913
7.16630E+06 0.000838060
7.16630E+06 0.000838061
7.16630E+06 0.000838061
7.20000E+06 0.000849827
7.21119E+06 0.000853733
7.21119E+06 0.000853733
7.25000E+06 0.000867283
7.30000E+06 0.000885809
7.35040E+06 0.000904482
7.35040E+06 0.000904482
7.36273E+06 0.000909050
7.36273E+06 0.000909050
7.40000E+06 0.000922860
7.40361E+06 0.000924197
7.40361E+06 0.000924199
7.40895E+06 0.000926176
7.40895E+06 0.000926177
7.49078E+06 0.000956493
7.49078E+06 0.000956493
7.50000E+06 0.000959911
7.50252E+06 0.000960896
7.50252E+06 0.000960896
7.52936E+06 0.000971384
7.52936E+06 0.000971384
7.60000E+06 0.000998986
7.61779E+06 0.00100594
7.61779E+06 0.00100594
7.66904E+06 0.00102596
7.66904E+06 0.00102596
7.70000E+06 0.00103806
7.74641E+06 0.00105620
7.74641E+06 0.00105620
7.75000E+06 0.00105760
7.77288E+06 0.00106697
7.77288E+06 0.00106697
7.80000E+06 0.00107808
7.81273E+06 0.00108329
7.81273E+06 0.00108329
7.81823E+06 0.00108555
7.81823E+06 0.00108555
7.86599E+06 0.00110511
7.86599E+06 0.00110511
7.88608E+06 0.00111334
7.88609E+06 0.00111334
7.89613E+06 0.00111746
7.89613E+06 0.00111746
7.90000E+06 0.00111904
7.90297E+06 0.00112025
7.90297E+06 0.00112026
8.00000E+06 0.00116000
8.03553E+06 0.00117511
8.03553E+06 0.00117511
8.04485E+06 0.00117907
8.04485E+06 0.00117907
8.04704E+06 0.00118000
8.06394E+06 0.00118719
8.06394E+06 0.00118719
8.20000E+06 0.00124504
8.25000E+06 0.00126631
8.40000E+06 0.00133090
8.49983E+06 0.00137389
8.49983E+06 0.00137389
8.49984E+06 0.00137389
8.50000E+06 0.00137396
8.53390E+06 0.00138830
8.53390E+06 0.00138830
8.53390E+06 0.00138830
8.60000E+06 0.00141626
8.73768E+06 0.00147449
8.73768E+06 0.00147449
8.73768E+06 0.00147449
8.75000E+06 0.00147970
8.80000E+06 0.00149976
8.81144E+06 0.00150435
8.81144E+06 0.00150435
8.81144E+06 0.00150435
8.93112E+06 0.00155237
8.93112E+06 0.00155237
8.93112E+06 0.00155237
8.96990E+06 0.00156793
8.96990E+06 0.00156793
8.96990E+06 0.00156793
9.00000E+06 0.00158000
9.03723E+06 0.00159224
9.03723E+06 0.00159224
9.03723E+06 0.00159225
9.04494E+06 0.00159478
9.10023E+06 0.00161297
9.10023E+06 0.00161297
9.10023E+06 0.00161297
9.12324E+06 0.00162053
9.12324E+06 0.00162053
9.12324E+06 0.00162053
9.16344E+06 0.00163375
9.16344E+06 0.00163375
9.16344E+06 0.00163376
9.18615E+06 0.00164122
9.18615E+06 0.00164122
9.18615E+06 0.00164122
9.20000E+06 0.00164578
9.25000E+06 0.00166222
9.27337E+06 0.00166772
9.27337E+06 0.00166772
9.27337E+06 0.00166772
9.30251E+06 0.00167456
9.30251E+06 0.00167456
9.30251E+06 0.00167456
9.40000E+06 0.00169747
9.40168E+06 0.00169787
9.50000E+06 0.00172097
9.60000E+06 0.00173826
9.75000E+06 0.00176419
9.80000E+06 0.00177135
1.00000E+07 0.00180000
1.05000E+07 0.00185481
1.10000E+07 0.00188000
1.15000E+07 0.00184000
1.20000E+07 0.00172884
1.25000E+07 0.00157000
1.26936E+07 0.00149644
1.29411E+07 0.00140238
1.30000E+07 0.00138000
1.35000E+07 0.00125032
1.40000E+07 0.00113580
1.41741E+07 0.00109691
1.45000E+07 0.00102412
1.49290E+07 0.000933616
1.50000E+07 0.000918630
1.55000E+07 0.000816005
1.60000E+07 0.000717060
1.65000E+07 0.000626384
1.70000E+07 0.000541300
1.75000E+07 0.000464485
1.80000E+07 0.000399920
1.85000E+07 0.000345382
1.90000E+07 0.000299540
1.95000E+07 0.000262812
2.00000E+07 0.000233660
2.05000E+07 0.000209533
2.10000E+07 0.000189330
2.15000E+07 0.000173275
2.20000E+07 0.000157220
2.23016E+07 0.000150002
2.23017E+07 0.000150002
2.25000E+07 0.000145255
2.30000E+07 0.000133290
2.35000E+07 0.000124015
2.40000E+07 0.000114740
2.45000E+07 0.000107510
2.50000E+07 0.000100280
2.55000E+07 9.44895E-05
2.60000E+07 8.86990E-05
2.65000E+07 8.40650E-05
2.70000E+07 7.94310E-05
2.75000E+07 7.56965E-05
2.80000E+07 7.19620E-05
2.85000E+07 6.89105E-05
2.90000E+07 6.58590E-05
2.95000E+07 6.33590E-05
3.00000E+07 6.08590E-05
3.00000E+07 0.00000
3.10000E+07 0.00000
3.20000E+07 0.00000
3.30000E+07 0.00000
3.39187E+07 0.00000
3.40000E+07 0.00000
3.50000E+07 0.00000
3.50995E+07 0.00000
3.51515E+07 0.00000
3.60000E+07 0.00000
3.70000E+07 0.00000
3.74999E+07 0.00000
3.80000E+07 0.00000
3.90000E+07 0.00000
4.00000E+07 0.00000
4.04626E+07 0.00000
4.10000E+07 0.00000
4.18482E+07 0.00000
4.20000E+07 0.00000
4.20051E+07 0.00000
4.30000E+07 0.00000
4.40000E+07 0.00000
4.44579E+07 0.00000
4.50000E+07 0.00000
4.60000E+07 0.00000
4.70000E+07 0.00000
4.80000E+07 0.00000
4.85721E+07 0.00000
4.90000E+07 0.00000
5.00000E+07 0.00000
5.02483E+07 0.00000
5.03737E+07 0.00000
5.10000E+07 0.00000
5.20000E+07 0.00000
5.30000E+07 0.00000
5.32286E+07 0.00000
5.40000E+07 0.00000
5.50000E+07 0.00000
5.52478E+07 0.00000
5.60000E+07 0.00000
5.70000E+07 0.00000
5.71919E+07 0.00000
5.72867E+07 0.00000
5.80000E+07 0.00000
5.90000E+07 0.00000
6.00000E+07 0.00000
6.02428E+07 0.00000
6.10000E+07 0.00000
6.20000E+07 0.00000
6.30000E+07 0.00000
6.36588E+07 0.00000
6.40000E+07 0.00000
6.50000E+07 0.00000
6.60000E+07 0.00000
6.60203E+07 0.00000
6.60883E+07 0.00000
6.70000E+07 0.00000
6.80000E+07 0.00000
6.90000E+07 0.00000
6.94797E+07 0.00000
7.00000E+07 0.00000
7.04047E+07 0.00000
7.10000E+07 0.00000
7.20000E+07 0.00000
7.30000E+07 0.00000
7.30081E+07 0.00000
7.32465E+07 0.00000
7.40000E+07 0.00000
7.50000E+07 0.00000
7.60000E+07 0.00000
7.66417E+07 0.00000
7.70000E+07 0.00000
7.80000E+07 0.00000
7.90000E+07 0.00000
7.93854E+07 0.00000
8.00000E+07 0.00000
8.10000E+07 0.00000
8.20000E+07 0.00000
8.22262E+07 0.00000
8.24340E+07 0.00000
8.30000E+07 0.00000
8.40000E+07 0.00000
8.50000E+07 0.00000
8.60000E+07 0.00000
8.61018E+07 0.00000
8.64077E+07 0.00000
8.70000E+07 0.00000
8.80000E+07 0.00000
8.90000E+07 0.00000
8.95981E+07 0.00000
8.96341E+07 0.00000
9.00000E+07 0.00000
9.10000E+07 0.00000
9.20000E+07 0.00000
9.30000E+07 0.00000
9.35752E+07 0.00000
9.40000E+07 0.00000
9.50000E+07 0.00000
9.60000E+07 0.00000
9.70000E+07 0.00000
9.80000E+07 0.00000
9.87045E+07 0.00000
9.89122E+07 0.00000
9.90000E+07 0.00000
1.00000E+08 0.00000
1.02000E+08 0.00000
1.03344E+08 0.00000
1.04000E+08 0.00000
1.06000E+08 0.00000
1.06643E+08 0.00000
1.08000E+08 0.00000
1.10000E+08 0.00000
1.11023E+08 0.00000
1.12000E+08 0.00000
1.14000E+08 0.00000
1.16000E+08 0.00000
1.18000E+08 0.00000
1.20000E+08 0.00000
1.22000E+08 0.00000
1.24000E+08 0.00000
1.26000E+08 0.00000
1.28000E+08 0.00000
1.30000E+08 0.00000
1.32000E+08 0.00000
1.34000E+08 0.00000
1.36000E+08 0.00000
1.38000E+08 0.00000
1.40000E+08 0.00000
1.42000E+08 0.00000
1.44000E+08 0.00000
1.46000E+08 0.00000
1.48000E+08 0.00000
1.50000E+08 0.00000